Data from background_80_degrees_MAYP1115451__0__10-45-40-559.txt Node

Date: Thu Jun 06 10:45:40 MDT 2024
User: Modes Lab
Spectrometer: MAYP111545
Trigger mode: 0
Integration Time (sec): 4.223000E-2
Scans to average: 1
Electric dark correction enabled: true
Nonlinearity correction enabled: false
Boxcar width: 0
XAxis mode: Wavelengths
Number of Pixels in Spectrum: 2068
>>>>>Begin Spectral Data<<<<<
165.214	1009.83
165.449	-188.17
165.683	34.83
165.918	-12.17
166.152	134.83
166.387	235.83
166.621	559.83
166.856	864.83
167.09	920.83
167.325	912.83
167.559	903.83
167.794	915.83
168.028	886.83
168.263	911.83
168.497	935.83
168.732	891.83
168.966	901.83
169.2	915.83
169.435	940.83
169.669	943.83
169.903	963.83
170.138	953.83
170.372	914.83
170.606	946.83
170.841	936.83
171.075	957.83
171.309	954.83
171.544	936.83
171.778	953.83
172.012	972.83
172.246	953.83
172.48	998.83
172.715	973.83
172.949	960.83
173.183	962.83
173.417	926.83
173.651	968.83
173.885	1026.83
174.119	993.83
174.354	1002.83
174.588	970.83
174.822	1011.83
175.056	1011.83
175.29	1015.83
175.524	983.83
175.758	994.83
175.992	968.83
176.226	995.83
176.46	984.83
176.694	1009.83
176.928	1006.83
177.162	987.83
177.396	966.83
177.63	975.83
177.864	1008.83
178.097	1002.83
178.331	1007.83
178.565	999.83
178.799	1008.83
179.033	1011.83
179.267	1009.83
179.5	1003.83
179.734	995.83
179.968	1010.83
180.202	1001.83
180.436	1006.83
180.669	985.83
180.903	1040.83
181.137	1015.83
181.371	1040.83
181.604	1055.83
181.838	995.83
182.072	1018.83
182.305	1026.83
182.539	1031.83
182.772	1023.83
183.006	1079.83
183.24	1065.83
183.473	1075.83
183.707	1044.83
183.94	1079.83
184.174	1052.83
184.408	1056.83
184.641	1100.83
184.875	1088.83
185.108	1066.83
185.342	1086.83
185.575	1079.83
185.808	1137.83
186.042	1135.83
186.275	1105.83
186.509	1133.83
186.742	1155.83
186.976	1208.83
187.209	1256.83
187.442	1227.83
187.676	1235.83
187.909	1249.83
188.142	1273.83
188.376	1290.83
188.609	1307.83
188.842	1368.83
189.076	1453.83
189.309	1457.83
189.542	1499.83
189.775	1483.83
190.009	1449.83
190.242	1509.83
190.475	1604.83
190.708	1633.83
190.941	1677.83
191.174	1734.83
191.408	1763.83
191.641	1779.83
191.874	1850.83
192.107	1872.83
192.34	1904.83
192.573	1926.83
192.806	2042.83
193.039	2108.83
193.272	2167.83
193.505	2249.83
193.738	2254.83
193.971	2339.83
194.204	2358.83
194.437	2380.83
194.67	2438.83
194.903	2539.83
195.136	2588.83
195.369	2685.83
195.602	2669.83
195.835	2790.83
196.068	2776.83
196.301	2860.83
196.533	2966.83
196.766	3068.83
196.999	3090.83
197.232	3089.83
197.465	3184.83
197.698	3264.83
197.93	3306.83
198.163	3433.83
198.396	3470.83
198.629	3488.83
198.861	3626.83
199.094	3677.83
199.327	3670.83
199.559	3775.83
199.792	3866.83
200.025	3948.83
200.257	4003.83
200.49	4098.83
200.723	4119.83
200.955	4238.83
201.188	4298.83
201.42	4307.83
201.653	4471.83
201.886	4498.83
202.118	4586.83
202.351	4625.83
202.583	4810.83
202.816	4899.83
203.048	4912.83
203.281	5008.83
203.513	5080.83
203.745	5219.83
203.978	5296.83
204.21	5296.83
204.443	5418.83
204.675	5544.83
204.907	5683.83
205.14	5739.83
205.372	5904.83
205.605	5909.83
205.837	6122.83
206.069	6097.83
206.302	6225.83
206.534	6331.83
206.766	6395.83
206.998	6529.83
207.231	6813.83
207.463	6893.83
207.695	6866.83
207.927	7044.83
208.159	7170.83
208.392	7153.83
208.624	7326.83
208.856	7515.83
209.088	7708.83
209.32	7744.83
209.552	7891.83
209.784	8038.83
210.017	8057.83
210.249	8174.83
210.481	8455.83
210.713	8511.83
210.945	8683.83
211.177	8824.83
211.409	8995.83
211.641	9093.83
211.873	9276.83
212.105	9439.83
212.337	9610.83
212.569	9762.83
212.801	9919.83
213.033	9962.83
213.264	10247.83
213.496	10229.83
213.728	10447.83
213.96	10635.83
214.192	10820.83
214.424	11027.83
214.656	11243.83
214.887	11321.83
215.119	11571.83
215.351	11707.83
215.583	11948.83
215.815	12042.83
216.046	12299.83
216.278	12535.83
216.51	12715.83
216.741	12802.83
216.973	13039.83
217.205	13144.83
217.436	13481.83
217.668	13691.83
217.9	13751.83
218.131	13982.83
218.363	14163.83
218.595	14352.83
218.826	14615.83
219.058	14747.83
219.289	15033.83
219.521	15096.83
219.752	15502.83
219.984	15704.83
220.215	15728.83
220.447	15955.83
220.678	16105.83
220.91	16347.83
221.141	16457.83
221.373	16787.83
221.604	17157.83
221.836	17219.83
222.067	17444.83
222.298	17698.83
222.53	17903.83
222.761	18091.83
222.993	18385.83
223.224	18608.83
223.455	18856.83
223.686	18906.83
223.918	19247.83
224.149	19467.83
224.38	19746.83
224.612	20008.83
224.843	20195.83
225.074	20267.83
225.305	20629.83
225.536	20798.83
225.768	20913.83
225.999	21255.83
226.23	21689.83
226.461	21934.83
226.692	22040.83
226.923	22294.83
227.155	22320.83
227.386	22693.83
227.617	22991.83
227.848	23216.83
228.079	23249.83
228.31	23555.83
228.541	23648.83
228.772	24006.83
229.003	24275.83
229.234	24398.83
229.465	24831.83
229.696	25122.83
229.927	25339.83
230.158	25307.83
230.389	25367.83
230.62	25872.83
230.85	25986.83
231.081	26374.83
231.312	26313.83
231.543	26712.83
231.774	27139.83
232.005	27128.83
232.236	27253.83
232.466	27440.83
232.697	27786.83
232.928	27923.83
233.159	28214.83
233.389	28526.83
233.62	28650.83
233.851	28820.83
234.082	28791.83
234.312	29206.83
234.543	29217.83
234.774	29219.83
235.004	29465.83
235.235	29532.83
235.466	29907.83
235.696	30022.83
235.927	30135.83
236.157	30076.83
236.388	30279.83
236.618	30218.83
236.849	30597.83
237.08	30642.83
237.31	30772.83
237.541	31055.83
237.771	31139.83
238.002	31177.83
238.232	31121.83
238.463	31187.83
238.693	31533.83
238.923	31398.83
239.154	31688.83
239.384	31672.83
239.615	31526.83
239.845	32021.83
240.075	32117.83
240.306	32077.83
240.536	32111.83
240.766	32113.83
240.997	31950.83
241.227	32270.83
241.457	32159.83
241.687	32295.83
241.918	32209.83
242.148	32332.83
242.378	32394.83
242.608	32488.83
242.839	32623.83
243.069	32785.83
243.299	32631.83
243.529	32626.83
243.759	32749.83
243.989	32743.83
244.22	32995.83
244.45	32887.83
244.68	33056.83
244.91	32813.83
245.14	32928.83
245.37	33031.83
245.6	33423.83
245.83	33095.83
246.06	33132.83
246.29	33027.83
246.52	33208.83
246.75	33173.83
246.98	33257.83
247.21	33432.83
247.44	33193.83
247.67	33337.83
247.9	33408.83
248.13	33408.83
248.359	33566.83
248.589	33416.83
248.819	33475.83
249.049	33423.83
249.279	33380.83
249.509	33503.83
249.738	33386.83
249.968	33624.83
250.198	33715.83
250.428	33542.83
250.657	33473.83
250.887	33578.83
251.117	33778.83
251.347	33473.83
251.576	33670.83
251.806	33743.83
252.036	33725.83
252.265	33868.83
252.495	33628.83
252.725	33647.83
252.954	33649.83
253.184	33712.83
253.413	33725.83
253.643	33654.83
253.873	33758.83
254.102	33814.83
254.332	33493.83
254.561	33540.83
254.791	33824.83
255.02	33528.83
255.25	33502.83
255.479	33612.83
255.708	33641.83
255.938	33584.83
256.167	33520.83
256.397	33446.83
256.626	33413.83
256.856	33529.83
257.085	33549.83
257.314	33402.83
257.544	33454.83
257.773	33244.83
258.002	33155.83
258.232	33152.83
258.461	33291.83
258.69	33129.83
258.919	32766.83
259.149	33029.83
259.378	33096.83
259.607	33094.83
259.836	32661.83
260.065	32978.83
260.295	32792.83
260.524	32652.83
260.753	32668.83
260.982	32647.83
261.211	32673.83
261.44	32695.83
261.669	32462.83
261.899	32440.83
262.128	32413.83
262.357	32474.83
262.586	32355.83
262.815	32357.83
263.044	32312.83
263.273	31987.83
263.502	32235.83
263.731	32001.83
263.96	31964.83
264.189	31867.83
264.418	32114.83
264.646	31875.83
264.875	31912.83
265.104	31786.83
265.333	31755.83
265.562	31907.83
265.791	31610.83
266.02	31777.83
266.249	31625.83
266.477	31679.83
266.706	31599.83
266.935	31537.83
267.164	31499.83
267.393	31402.83
267.621	31439.83
267.85	31239.83
268.079	31130.83
268.307	31444.83
268.536	31200.83
268.765	31134.83
268.993	31271.83
269.222	31124.83
269.451	31050.83
269.679	31257.83
269.908	30927.83
270.137	31014.83
270.365	30883.83
270.594	30860.83
270.822	31141.83
271.051	31107.83
271.279	30675.83
271.508	31088.83
271.736	30848.83
271.965	31082.83
272.193	31048.83
272.422	30796.83
272.65	31116.83
272.879	31000.83
273.107	30877.83
273.336	30767.83
273.564	30934.83
273.792	30936.83
274.021	31009.83
274.249	30929.83
274.477	30779.83
274.706	30881.83
274.934	30971.83
275.162	30878.83
275.391	30889.83
275.619	31014.83
275.847	31038.83
276.075	30905.83
276.304	31139.83
276.532	30989.83
276.76	31040.83
276.988	31149.83
277.216	31122.83
277.445	31082.83
277.673	31198.83
277.901	31174.83
278.129	30946.83
278.357	31148.83
278.585	31195.83
278.813	30986.83
279.041	31071.83
279.269	31194.83
279.497	30972.83
279.725	31125.83
279.954	31373.83
280.182	31584.83
280.41	31408.83
280.637	31265.83
280.865	31233.83
281.093	31353.83
281.321	31551.83
281.549	31426.83
281.777	31305.83
282.005	31464.83
282.233	31533.83
282.461	31612.83
282.689	31457.83
282.916	31426.83
283.144	31400.83
283.372	31506.83
283.6	31654.83
283.828	31641.83
284.055	31785.83
284.283	31675.83
284.511	31691.83
284.739	31840.83
284.966	31710.83
285.194	31765.83
285.422	31914.83
285.649	31888.83
285.877	31914.83
286.105	31792.83
286.332	31822.83
286.56	31776.83
286.788	31799.83
287.015	31874.83
287.243	31946.83
287.47	32019.83
287.698	32000.83
287.925	32004.83
288.153	31846.83
288.381	31918.83
288.608	31969.83
288.836	32024.83
289.063	32069.83
289.29	32118.83
289.518	32014.83
289.745	32116.83
289.973	32121.83
290.2	32198.83
290.428	32269.83
290.655	32073.83
290.882	32120.83
291.11	32061.83
291.337	32274.83
291.564	31934.83
291.792	32174.83
292.019	32162.83
292.246	32197.83
292.473	32318.83
292.701	32232.83
292.928	32284.83
293.155	32211.83
293.382	32167.83
293.61	32142.83
293.837	32278.83
294.064	32254.83
294.291	32157.83
294.518	32179.83
294.745	32254.83
294.972	32485.83
295.2	32337.83
295.427	32177.83
295.654	32246.83
295.881	32416.83
296.108	32205.83
296.335	32320.83
296.562	32329.83
296.789	32235.83
297.016	32234.83
297.243	32359.83
297.47	32370.83
297.697	32260.83
297.924	32130.83
298.151	32293.83
298.378	32058.83
298.604	32288.83
298.831	32177.83
299.058	32219.83
299.285	32111.83
299.512	32222.83
299.739	31971.83
299.966	31971.83
300.192	32026.83
300.419	32151.83
300.646	32054.83
300.873	32056.83
301.099	31905.83
301.326	31915.83
301.553	31777.83
301.78	31944.83
302.006	31827.83
302.233	31644.83
302.46	31574.83
302.686	31705.83
302.913	31625.83
303.14	31537.83
303.366	31683.83
303.593	31369.83
303.819	31580.83
304.046	31325.83
304.272	31426.83
304.499	31393.83
304.725	31219.83
304.952	31298.83
305.179	31078.83
305.405	31138.83
305.631	31159.83
305.858	31171.83
306.084	31132.83
306.311	30888.83
306.537	31260.83
306.764	30984.83
306.99	30835.83
307.216	30951.83
307.443	30881.83
307.669	30590.83
307.895	30643.83
308.122	30528.83
308.348	30688.83
308.574	30725.83
308.801	30586.83
309.027	30566.83
309.253	30311.83
309.479	30378.83
309.706	30160.83
309.932	30314.83
310.158	30105.83
310.384	30046.83
310.61	29951.83
310.837	30121.83
311.063	29829.83
311.289	30046.83
311.515	29643.83
311.741	29789.83
311.967	29779.83
312.193	29659.83
312.419	29661.83
312.645	29539.83
312.871	29514.83
313.097	29435.83
313.323	29123.83
313.549	29268.83
313.775	29049.83
314.001	29280.83
314.227	28979.83
314.453	29211.83
314.679	29058.83
314.905	29013.83
315.131	28854.83
315.357	28568.83
315.583	28645.83
315.809	28659.83
316.034	28663.83
316.26	28530.83
316.486	28385.83
316.712	28392.83
316.938	28476.83
317.163	28088.83
317.389	28473.83
317.615	28115.83
317.841	28039.83
318.066	28115.83
318.292	28011.83
318.518	28019.83
318.743	27754.83
318.969	27895.83
319.195	27729.83
319.42	27488.83
319.646	27619.83
319.872	27535.83
320.097	27557.83
320.323	27567.83
320.548	27330.83
320.774	27310.83
320.999	27321.83
321.225	27397.83
321.45	27074.83
321.676	27129.83
321.901	26971.83
322.127	27106.83
322.352	27099.83
322.578	26862.83
322.803	26703.83
323.029	26822.83
323.254	26923.83
323.479	26659.83
323.705	26653.83
323.93	26706.83
324.155	26662.83
324.381	26475.83
324.606	26526.83
324.831	26571.83
325.057	26496.83
325.282	26301.83
325.507	26277.83
325.732	26260.83
325.958	26280.83
326.183	26205.83
326.408	26163.83
326.633	26098.83
326.858	25949.83
327.084	26015.83
327.309	25846.83
327.534	25846.83
327.759	26020.83
327.984	25761.83
328.209	25845.83
328.434	25655.83
328.659	25969.83
328.884	25682.83
329.109	25720.83
329.334	25475.83
329.559	25448.83
329.784	25549.83
330.009	25519.83
330.234	25351.83
330.459	25323.83
330.684	25347.83
330.909	25331.83
331.134	25150.83
331.359	24990.83
331.584	24875.83
331.809	25018.83
332.034	24896.83
332.259	24917.83
332.483	24892.83
332.708	24870.83
332.933	24823.83
333.158	24878.83
333.383	24659.83
333.607	24695.83
333.832	24743.83
334.057	24636.83
334.282	24654.83
334.506	24559.83
334.731	24382.83
334.956	24346.83
335.18	24549.83
335.405	24477.83
335.63	24211.83
335.854	24573.83
336.079	24240.83
336.303	24165.83
336.528	24297.83
336.753	24219.83
336.977	24005.83
337.202	24051.83
337.426	24086.83
337.651	24067.83
337.875	23890.83
338.1	23918.83
338.324	23770.83
338.549	23899.83
338.773	23767.83
338.997	23877.83
339.222	23708.83
339.446	23683.83
339.671	23620.83
339.895	23632.83
340.119	23505.83
340.344	23680.83
340.568	23643.83
340.792	23497.83
341.017	23382.83
341.241	23547.83
341.465	23358.83
341.689	23319.83
341.914	23235.83
342.138	23091.83
342.362	23283.83
342.586	23076.83
342.811	23069.83
343.035	23019.83
343.259	23151.83
343.483	22976.83
343.707	22911.83
343.931	22886.83
344.155	22923.83
344.38	22758.83
344.604	22786.83
344.828	22673.83
345.052	22724.83
345.276	22709.83
345.5	22670.83
345.724	22553.83
345.948	22589.83
346.172	22629.83
346.396	22449.83
346.62	22394.83
346.844	22446.83
347.068	22418.83
347.292	22438.83
347.515	22536.83
347.739	22288.83
347.963	22170.83
348.187	22139.83
348.411	22088.83
348.635	22141.83
348.859	22134.83
349.082	21882.83
349.306	21888.83
349.53	21917.83
349.754	21870.83
349.977	21785.83
350.201	21766.83
350.425	21658.83
350.649	21837.83
350.872	21662.83
351.096	21496.83
351.32	21422.83
351.543	21525.83
351.767	21347.83
351.99	21417.83
352.214	21435.83
352.438	21379.83
352.661	21250.83
352.885	21157.83
353.108	21208.83
353.332	21158.83
353.555	21284.83
353.779	21226.83
354.002	21039.83
354.226	21040.83
354.449	21000.83
354.673	20889.83
354.896	21040.83
355.12	20823.83
355.343	20680.83
355.566	20885.83
355.79	20861.83
356.013	20569.83
356.237	20571.83
356.46	20701.83
356.683	20575.83
356.907	20579.83
357.13	20649.83
357.353	20490.83
357.576	20402.83
357.8	20345.83
358.023	20280.83
358.246	20211.83
358.469	20165.83
358.693	20314.83
358.916	20284.83
359.139	20010.83
359.362	20138.83
359.585	20172.83
359.808	19881.83
360.031	20121.83
360.255	19884.83
360.478	20091.83
360.701	19748.83
360.924	19813.83
361.147	19804.83
361.37	19846.83
361.593	19935.83
361.816	19657.83
362.039	19761.83
362.262	19917.83
362.485	19683.83
362.708	19654.83
362.931	19595.83
363.154	19609.83
363.377	19434.83
363.599	19411.83
363.822	19434.83
364.045	19486.83
364.268	19368.83
364.491	19454.83
364.714	19336.83
364.936	19416.83
365.159	19446.83
365.382	19297.83
365.605	19290.83
365.828	19393.83
366.05	19184.83
366.273	19341.83
366.496	19529.83
366.718	19484.83
366.941	19635.83
367.164	19541.83
367.386	19408.83
367.609	19538.83
367.832	19304.83
368.054	19369.83
368.277	19276.83
368.5	19198.83
368.722	19242.83
368.945	19224.83
369.167	19187.83
369.39	19091.83
369.612	19105.83
369.835	18907.83
370.057	18737.83
370.28	18955.83
370.502	18829.83
370.725	18838.83
370.947	18827.83
371.169	18786.83
371.392	18782.83
371.614	18724.83
371.837	18735.83
372.059	18924.83
372.281	18633.83
372.504	18635.83
372.726	18601.83
372.948	18626.83
373.171	18669.83
373.393	18648.83
373.615	18736.83
373.837	18705.83
374.06	18833.83
374.282	18722.83
374.504	18762.83
374.726	18896.83
374.948	18889.83
375.17	18821.83
375.393	19051.83
375.615	18999.83
375.837	19080.83
376.059	18894.83
376.281	18966.83
376.503	19040.83
376.725	18947.83
376.947	19096.83
377.169	19083.83
377.391	19199.83
377.613	19249.83
377.835	19342.83
378.057	19398.83
378.279	19670.83
378.501	19483.83
378.723	19786.83
378.945	19663.83
379.167	19826.83
379.389	19974.83
379.611	19969.83
379.833	19687.83
380.054	19440.83
380.276	19409.83
380.498	19507.83
380.72	19691.83
380.942	19619.83
381.163	19699.83
381.385	19531.83
381.607	19409.83
381.829	19465.83
382.05	19574.83
382.272	19799.83
382.494	19930.83
382.716	20015.83
382.937	19926.83
383.159	19804.83
383.381	19945.83
383.602	19681.83
383.824	19802.83
384.045	19762.83
384.267	19848.83
384.488	19817.83
384.71	19899.83
384.932	20146.83
385.153	19939.83
385.375	19818.83
385.596	19843.83
385.818	20033.83
386.039	20060.83
386.261	20105.83
386.482	20432.83
386.703	20331.83
386.925	20423.83
387.146	20635.83
387.368	20825.83
387.589	20830.83
387.81	20839.83
388.032	20926.83
388.253	21206.83
388.474	20974.83
388.696	21163.83
388.917	20997.83
389.138	20866.83
389.359	20651.83
389.581	20284.83
389.802	20442.83
390.023	20530.83
390.244	20462.83
390.465	20556.83
390.687	20774.83
390.908	20801.83
391.129	20875.83
391.35	20848.83
391.571	20990.83
391.792	21261.83
392.013	21580.83
392.234	21707.83
392.455	21931.83
392.677	22392.83
392.898	22414.83
393.119	22552.83
393.34	22260.83
393.561	21976.83
393.782	21814.83
394.003	21761.83
394.223	21758.83
394.444	21986.83
394.665	21986.83
394.886	21995.83
395.107	21961.83
395.328	21847.83
395.549	21625.83
395.77	21612.83
395.99	22038.83
396.211	21922.83
396.432	21872.83
396.653	22280.83
396.874	22271.83
397.094	22424.83
397.315	22507.83
397.536	22903.83
397.757	23167.83
397.977	23352.83
398.198	23542.83
398.419	23779.83
398.639	23840.83
398.86	23747.83
399.081	23425.83
399.301	23256.83
399.522	23094.83
399.742	23128.83
399.963	22779.83
400.184	22497.83
400.404	22821.83
400.625	22471.83
400.845	22786.83
401.066	23000.83
401.286	23009.83
401.507	22833.83
401.727	22515.83
401.948	22776.83
402.168	22723.83
402.388	22594.83
402.609	22713.83
402.829	22862.83
403.05	22963.83
403.27	22781.83
403.49	22963.83
403.711	23030.83
403.931	22968.83
404.151	23240.83
404.372	23352.83
404.592	23323.83
404.812	23538.83
405.032	23704.83
405.253	24067.83
405.473	24067.83
405.693	24087.83
405.913	23936.83
406.133	23795.83
406.353	23499.83
406.574	23187.83
406.794	23104.83
407.014	23035.83
407.234	22966.83
407.454	23034.83
407.674	22758.83
407.894	22982.83
408.114	23027.83
408.334	23478.83
408.554	23674.83
408.774	23563.83
408.994	23699.83
409.214	23533.83
409.434	23563.83
409.654	23622.83
409.874	23786.83
410.094	23908.83
410.314	23677.83
410.534	23384.83
410.754	23393.83
410.974	23555.83
411.193	23494.83
411.413	23550.83
411.633	23664.83
411.853	23701.83
412.073	23975.83
412.292	24302.83
412.512	24487.83
412.732	24464.83
412.952	24582.83
413.171	24595.83
413.391	24506.83
413.611	24631.83
413.831	24606.83
414.05	24434.83
414.27	24177.83
414.489	24102.83
414.709	24159.83
414.929	24488.83
415.148	24401.83
415.368	24421.83
415.587	24451.83
415.807	24368.83
416.026	24246.83
416.246	24466.83
416.465	24496.83
416.685	24568.83
416.904	24404.83
417.124	24251.83
417.343	24503.83
417.563	24382.83
417.782	24483.83
418.002	24702.83
418.221	24536.83
418.44	24604.83
418.66	24697.83
418.879	24806.83
419.098	24839.83
419.318	24916.83
419.537	24859.83
419.756	25018.83
419.976	25083.83
420.195	25280.83
420.414	25608.83
420.633	25854.83
420.853	25964.83
421.072	26395.83
421.291	26700.83
421.51	27000.83
421.729	27424.83
421.948	27300.83
422.168	27231.83
422.387	27043.83
422.606	26802.83
422.825	26814.83
423.044	26902.83
423.263	26904.83
423.482	27155.83
423.701	26867.83
423.92	26618.83
424.139	26225.83
424.358	26161.83
424.577	26200.83
424.796	26317.83
425.015	26307.83
425.234	26598.83
425.453	26432.83
425.672	26227.83
425.891	25922.83
426.11	25743.83
426.328	25670.83
426.547	25647.83
426.766	26140.83
426.985	26192.83
427.204	26643.83
427.422	27366.83
427.641	27443.83
427.86	27226.83
428.079	26743.83
428.297	26456.83
428.516	26530.83
428.735	26851.83
428.954	26728.83
429.172	27133.83
429.391	27526.83
429.61	28101.83
429.828	28643.83
430.047	28845.83
430.265	28730.83
430.484	28578.83
430.703	28632.83
430.921	28358.83
431.14	28166.83
431.358	27856.83
431.577	27264.83
431.795	26948.83
432.014	26819.83
432.232	26620.83
432.451	26715.83
432.669	26821.83
432.887	27169.83
433.106	27096.83
433.324	27478.83
433.543	28486.83
433.761	29480.83
433.979	29871.83
434.198	29185.83
434.416	28439.83
434.634	27553.83
434.853	27302.83
435.071	27713.83
435.289	27825.83
435.507	28073.83
435.726	27981.83
435.944	27684.83
436.162	27941.83
436.38	28126.83
436.598	28349.83
436.817	28571.83
437.035	28224.83
437.253	28221.83
437.471	27959.83
437.689	27939.83
437.907	28445.83
438.125	28523.83
438.343	28474.83
438.561	28772.83
438.78	28838.83
438.998	28954.83
439.216	28713.83
439.434	28592.83
439.652	28822.83
439.869	28672.83
440.087	28642.83
440.305	28683.83
440.523	28683.83
440.741	29017.83
440.959	29682.83
441.177	30401.83
441.395	31171.83
441.613	31247.83
441.831	31139.83
442.048	30866.83
442.266	30477.83
442.484	30324.83
442.702	29975.83
442.919	30110.83
443.137	30395.83
443.355	30594.83
443.573	31176.83
443.79	31071.83
444.008	30869.83
444.226	30963.83
444.443	30808.83
444.661	30800.83
444.879	31066.83
445.096	31002.83
445.314	30804.83
445.532	30736.83
445.749	30888.83
445.967	30937.83
446.184	30928.83
446.402	31400.83
446.619	31270.83
446.837	31306.83
447.054	30858.83
447.272	30869.83
447.489	30811.83
447.707	30715.83
447.924	30811.83
448.141	30770.83
448.359	30756.83
448.576	30950.83
448.794	31056.83
449.011	30965.83
449.228	31346.83
449.446	31408.83
449.663	31071.83
449.88	31319.83
450.098	31372.83
450.315	31224.83
450.532	31227.83
450.749	31130.83
450.967	31027.83
451.184	31051.83
451.401	30950.83
451.618	30925.83
451.835	31126.83
452.052	31281.83
452.27	31219.83
452.487	31397.83
452.704	31088.83
452.921	31180.83
453.138	31126.83
453.355	31039.83
453.572	31011.83
453.789	30930.83
454.006	31000.83
454.223	30821.83
454.44	31005.83
454.657	31123.83
454.874	31363.83
455.091	31647.83
455.308	31857.83
455.525	31901.83
455.742	31931.83
455.959	31668.83
456.176	31313.83
456.393	31361.83
456.609	31608.83
456.826	31689.83
457.043	31790.83
457.26	32147.83
457.477	32242.83
457.693	32130.83
457.91	32528.83
458.127	32651.83
458.344	32828.83
458.56	32876.83
458.777	33040.83
458.994	32748.83
459.21	32999.83
459.427	32691.83
459.644	32894.83
459.86	32768.83
460.077	32695.83
460.294	32619.83
460.51	32187.83
460.727	32196.83
460.943	32243.83
461.16	32330.83
461.376	32376.83
461.593	32234.83
461.809	31963.83
462.026	31552.83
462.242	31600.83
462.459	31637.83
462.675	31938.83
462.892	32137.83
463.108	32277.83
463.324	32425.83
463.541	32829.83
463.757	33021.83
463.974	33275.83
464.19	33198.83
464.406	33308.83
464.623	33613.83
464.839	33728.83
465.055	33976.83
465.271	33968.83
465.488	33777.83
465.704	33839.83
465.92	33800.83
466.136	33770.83
466.353	33344.83
466.569	32869.83
466.785	32787.83
467.001	32886.83
467.217	32770.83
467.433	32791.83
467.649	32865.83
467.865	33002.83
468.082	32985.83
468.298	33077.83
468.514	33002.83
468.73	32682.83
468.946	32716.83
469.162	32803.83
469.378	32698.83
469.594	32525.83
469.81	32348.83
470.026	32494.83
470.242	32507.83
470.457	32683.83
470.673	32600.83
470.889	32905.83
471.105	32848.83
471.321	32745.83
471.537	32944.83
471.753	33009.83
471.968	33272.83
472.184	33416.83
472.4	33550.83
472.616	33665.83
472.832	33947.83
473.047	34177.83
473.263	34459.83
473.479	34768.83
473.694	34467.83
473.91	34413.83
474.126	34389.83
474.341	34526.83
474.557	34546.83
474.773	34851.83
474.988	35132.83
475.204	35273.83
475.42	35327.83
475.635	35587.83
475.851	34989.83
476.066	35212.83
476.282	35354.83
476.497	35327.83
476.713	35320.83
476.928	35305.83
477.144	35294.83
477.359	35448.83
477.575	35392.83
477.79	35832.83
478.005	36076.83
478.221	36256.83
478.436	36409.83
478.651	36154.83
478.867	36091.83
479.082	35887.83
479.297	36159.83
479.513	36217.83
479.728	36439.83
479.943	36753.83
480.159	36678.83
480.374	37074.83
480.589	36753.83
480.804	36737.83
481.019	36595.83
481.235	36884.83
481.45	37021.83
481.665	37275.83
481.88	37343.83
482.095	37283.83
482.31	37330.83
482.525	37111.83
482.741	36918.83
482.956	37099.83
483.171	37061.83
483.386	37113.83
483.601	37527.83
483.816	37670.83
484.031	37583.83
484.246	37766.83
484.461	38078.83
484.676	38582.83
484.891	38792.83
485.105	39084.83
485.32	42305.83
485.535	47505.83
485.75	52120.83
485.965	56050.83
486.18	55680.83
486.395	51252.83
486.609	46531.83
486.824	41963.83
487.039	39400.83
487.254	38822.83
487.469	38705.83
487.683	38630.83
487.898	38470.83
488.113	37882.83
488.327	37757.83
488.542	37687.83
488.757	37547.83
488.972	37881.83
489.186	37956.83
489.401	38051.83
489.615	37936.83
489.83	38154.83
490.045	38077.83
490.259	37901.83
490.474	37987.83
490.688	37834.83
490.903	37950.83
491.117	38209.83
491.332	37948.83
491.546	37902.83
491.761	37674.83
491.975	37824.83
492.19	37758.83
492.404	37619.83
492.618	37841.83
492.833	38073.83
493.047	37885.83
493.262	37978.83
493.476	38201.83
493.69	37956.83
493.905	38110.83
494.119	38026.83
494.333	37978.83
494.547	37953.83
494.762	37875.83
494.976	37792.83
495.19	37835.83
495.404	37712.83
495.619	37776.83
495.833	37938.83
496.047	38165.83
496.261	38606.83
496.475	38828.83
496.689	38526.83
496.903	38566.83
497.117	38042.83
497.332	37852.83
497.546	37579.83
497.76	37422.83
497.974	37780.83
498.188	37724.83
498.402	37646.83
498.616	37853.83
498.83	37917.83
499.044	38156.83
499.258	38056.83
499.472	38047.83
499.685	37625.83
499.899	37599.83
500.113	37527.83
500.327	37404.83
500.541	37201.83
500.755	37433.83
500.969	37727.83
501.183	37709.83
501.396	37868.83
501.61	37825.83
501.824	37832.83
502.038	37804.83
502.251	37842.83
502.465	37880.83
502.679	37719.83
502.892	37818.83
503.106	37992.83
503.32	38005.83
503.533	38020.83
503.747	38043.83
503.961	37810.83
504.174	37473.83
504.388	37493.83
504.602	37604.83
504.815	37589.83
505.029	37760.83
505.242	37719.83
505.456	37691.83
505.669	37613.83
505.883	37734.83
506.096	37779.83
506.31	37983.83
506.523	38030.83
506.736	38016.83
506.95	37760.83
507.163	37752.83
507.377	37683.83
507.59	37822.83
507.803	38025.83
508.017	38097.83
508.23	38198.83
508.443	38472.83
508.657	38474.83
508.87	38520.83
509.083	38433.83
509.296	38428.83
509.51	38530.83
509.723	38524.83
509.936	38541.83
510.149	38610.83
510.363	38847.83
510.576	39020.83
510.789	39185.83
511.002	39298.83
511.215	39271.83
511.428	39616.83
511.641	39595.83
511.854	39768.83
512.067	39808.83
512.28	39866.83
512.493	39819.83
512.707	40106.83
512.92	40252.83
513.132	40273.83
513.345	40710.83
513.558	40578.83
513.771	40512.83
513.984	40726.83
514.197	41011.83
514.41	40679.83
514.623	41257.83
514.836	40946.83
515.049	40930.83
515.262	41281.83
515.474	41650.83
515.687	41577.83
515.9	41740.83
516.113	41870.83
516.325	41823.83
516.538	42136.83
516.751	42354.83
516.964	41925.83
517.176	42386.83
517.389	42456.83
517.602	42248.83
517.814	42483.83
518.027	42639.83
518.24	42741.83
518.452	42648.83
518.665	42836.83
518.877	42816.83
519.09	43207.83
519.303	43292.83
519.515	43356.83
519.728	43608.83
519.94	43612.83
520.153	43196.83
520.365	43113.83
520.578	43480.83
520.79	43437.83
521.002	43554.83
521.215	43790.83
521.427	43830.83
521.64	43628.83
521.852	43636.83
522.064	43772.83
522.277	43604.83
522.489	43949.83
522.701	43978.83
522.914	43981.83
523.126	44061.83
523.338	44195.83
523.551	44474.83
523.763	44385.83
523.975	44590.83
524.187	44263.83
524.399	44361.83
524.612	44294.83
524.824	44536.83
525.036	44138.83
525.248	44365.83
525.46	44641.83
525.672	44628.83
525.884	44634.83
526.096	45043.83
526.308	44848.83
526.521	44939.83
526.733	45085.83
526.945	44903.83
527.157	44962.83
527.369	45036.83
527.581	44892.83
527.793	45088.83
528.004	44744.83
528.216	44998.83
528.428	45094.83
528.64	45369.83
528.852	45406.83
529.064	45529.83
529.276	45520.83
529.488	45508.83
529.699	45388.83
529.911	45333.83
530.123	45477.83
530.335	45364.83
530.547	45282.83
530.758	45677.83
530.97	45496.83
531.182	45528.83
531.393	45663.83
531.605	45636.83
531.817	45509.83
532.029	45538.83
532.24	45718.83
532.452	45795.83
532.663	45729.83
532.875	46186.83
533.087	45900.83
533.298	46153.83
533.51	46361.83
533.721	46222.83
533.933	46316.83
534.144	46408.83
534.356	46318.83
534.567	46150.83
534.779	46282.83
534.99	46412.83
535.202	46514.83
535.413	46381.83
535.624	46504.83
535.836	46448.83
536.047	46467.83
536.259	46279.83
536.47	46078.83
536.681	46051.83
536.893	46130.83
537.104	46245.83
537.315	46369.83
537.526	46377.83
537.738	46433.83
537.949	46628.83
538.16	46548.83
538.371	46643.83
538.582	46914.83
538.794	46700.83
539.005	46771.83
539.216	46815.83
539.427	46713.83
539.638	46990.83
539.849	46680.83
540.06	46682.83
540.272	46650.83
540.483	46888.83
540.694	46791.83
540.905	46894.83
541.116	46958.83
541.327	46952.83
541.538	46988.83
541.749	47100.83
541.96	47057.83
542.17	47251.83
542.381	47072.83
542.592	47195.83
542.803	47056.83
543.014	47004.83
543.225	47009.83
543.436	47296.83
543.647	47203.83
543.857	47335.83
544.068	47237.83
544.279	46942.83
544.49	47439.83
544.701	47363.83
544.911	47268.83
545.122	47176.83
545.333	47006.83
545.543	46903.83
545.754	46706.83
545.965	46672.83
546.175	46795.83
546.386	46764.83
546.597	47138.83
546.807	47044.83
547.018	47208.83
547.229	47376.83
547.439	47468.83
547.65	47516.83
547.86	47823.83
548.071	47656.83
548.281	47766.83
548.492	47599.83
548.702	47750.83
548.913	47384.83
549.123	47261.83
549.333	47267.83
549.544	47222.83
549.754	47328.83
549.965	47268.83
550.175	47231.83
550.385	47267.83
550.596	47249.83
550.806	46907.83
551.016	47090.83
551.227	46884.83
551.437	47033.83
551.647	47376.83
551.857	47587.83
552.068	47646.83
552.278	47789.83
552.488	47611.83
552.698	47576.83
552.908	47800.83
553.119	47331.83
553.329	47668.83
553.539	47595.83
553.749	47632.83
553.959	47512.83
554.169	47372.83
554.379	47347.83
554.589	47434.83
554.799	47528.83
555.009	47385.83
555.219	47629.83
555.429	47707.83
555.639	47632.83
555.849	47898.83
556.059	47745.83
556.269	47694.83
556.479	47410.83
556.689	47563.83
556.899	47373.83
557.109	47468.83
557.319	47280.83
557.528	47306.83
557.738	47498.83
557.948	47474.83
558.158	47250.83
558.368	47358.83
558.577	47480.83
558.787	47265.83
558.997	47337.83
559.207	47199.83
559.416	47402.83
559.626	47638.83
559.836	47811.83
560.045	47835.83
560.255	47857.83
560.465	47906.83
560.674	48062.83
560.884	48050.83
561.093	48280.83
561.303	47770.83
561.512	47910.83
561.722	47643.83
561.932	47661.83
562.141	47747.83
562.351	47865.83
562.56	47744.83
562.769	47963.83
562.979	47851.83
563.188	47952.83
563.398	48014.83
563.607	47992.83
563.817	48212.83
564.026	48295.83
564.235	48408.83
564.445	48204.83
564.654	48152.83
564.863	48354.83
565.073	48297.83
565.282	48129.83
565.491	48026.83
565.7	48212.83
565.91	48312.83
566.119	48188.83
566.328	48560.83
566.537	48641.83
566.746	48812.83
566.956	48927.83
567.165	49329.83
567.374	49744.83
567.583	49546.83
567.792	49279.83
568.001	49402.83
568.21	49745.83
568.419	50051.83
568.628	50168.83
568.837	50568.83
569.046	51105.83
569.255	51640.83
569.464	52336.83
569.673	52308.83
569.882	52443.83
570.091	52382.83
570.3	52268.83
570.509	52289.83
570.718	52718.83
570.927	52544.83
571.135	53292.83
571.344	53599.83
571.553	53722.83
571.762	53396.83
571.971	53308.83
572.18	52706.83
572.388	51841.83
572.597	51864.83
572.806	52134.83
573.014	53121.83
573.223	54179.83
573.432	54834.83
573.641	54922.83
573.849	55153.83
574.058	55187.83
574.266	55054.83
574.475	54845.83
574.684	54833.83
574.892	54446.83
575.101	54310.83
575.309	53581.83
575.518	52971.83
575.726	53499.83
575.935	53586.83
576.143	54301.83
576.352	54722.83
576.56	55221.83
576.769	55244.83
576.977	55797.83
577.186	56704.83
577.394	57879.83
577.602	58490.83
577.811	58582.83
578.019	57754.83
578.228	56524.83
578.436	54917.83
578.644	53985.83
578.852	53334.83
579.061	53648.83
579.269	54157.83
579.477	54572.83
579.685	55177.83
579.894	55606.83
580.102	55299.83
580.31	55329.83
580.518	54852.83
580.726	55457.83
580.935	57451.83
581.143	59696.83
581.351	61368.83
581.559	61368.83
581.767	61368.83
581.975	60115.83
582.183	58205.83
582.391	56638.83
582.599	54880.83
582.807	53342.83
583.015	52068.83
583.223	51540.83
583.431	51109.83
583.639	51614.83
583.847	52195.83
584.055	53226.83
584.263	53430.83
584.471	54353.83
584.678	54825.83
584.886	55537.83
585.094	55418.83
585.302	55256.83
585.51	54771.83
585.718	53881.83
585.925	53005.83
586.133	51739.83
586.341	51538.83
586.549	51632.83
586.756	52427.83
586.964	53099.83
587.172	53842.83
587.379	54092.83
587.587	53824.83
587.795	53281.83
588.002	52794.83
588.21	52192.83
588.417	51880.83
588.625	51500.83
588.833	50678.83
589.04	49780.83
589.248	50039.83
589.455	49715.83
589.663	50065.83
589.87	49864.83
590.078	49636.83
590.285	49401.83
590.492	49286.83
590.7	48925.83
590.907	48630.83
591.115	48678.83
591.322	48843.83
591.529	48720.83
591.737	48642.83
591.944	48735.83
592.151	49732.83
592.359	50939.83
592.566	51860.83
592.773	52810.83
592.981	52552.83
593.188	52077.83
593.395	51335.83
593.602	50553.83
593.809	49889.83
594.017	49150.83
594.224	49308.83
594.431	49823.83
594.638	50377.83
594.845	51064.83
595.052	51131.83
595.259	50764.83
595.466	50058.83
595.673	49481.83
595.88	49036.83
596.088	48544.83
596.295	48005.83
596.502	48165.83
596.709	48232.83
596.915	48505.83
597.122	48606.83
597.329	48985.83
597.536	48597.83
597.743	48545.83
597.95	48474.83
598.157	48235.83
598.364	49200.83
598.571	49835.83
598.777	50630.83
598.984	50367.83
599.191	49537.83
599.398	48913.83
599.605	48869.83
599.811	48656.83
600.018	49186.83
600.225	49103.83
600.431	49057.83
600.638	49070.83
600.845	48964.83
601.052	48751.83
601.258	48618.83
601.465	48670.83
601.671	48334.83
601.878	48326.83
602.085	48311.83
602.291	48676.83
602.498	48423.83
602.704	48893.83
602.911	48827.83
603.117	49045.83
603.324	48288.83
603.53	47549.83
603.737	46610.83
603.943	45534.83
604.15	44800.83
604.356	43931.83
604.562	43512.83
604.769	43333.83
604.975	43196.83
605.181	43084.83
605.388	43062.83
605.594	42352.83
605.8	41661.83
606.007	40952.83
606.213	39992.83
606.419	39551.83
606.625	38994.83
606.832	39030.83
607.038	38588.83
607.244	38093.83
607.45	37618.83
607.656	36865.83
607.863	36129.83
608.069	35503.83
608.275	35032.83
608.481	34719.83
608.687	34315.83
608.893	33685.83
609.099	33122.83
609.305	32872.83
609.511	32656.83
609.717	32741.83
609.923	32270.83
610.129	31383.83
610.335	30683.83
610.541	30129.83
610.747	29710.83
610.953	29467.83
611.159	29027.83
611.365	28275.83
611.571	27851.83
611.776	27210.83
611.982	26514.83
612.188	26172.83
612.394	25752.83
612.6	25447.83
612.806	24846.83
613.011	24323.83
613.217	23816.83
613.423	23214.83
613.628	22865.83
613.834	22337.83
614.04	21934.83
614.246	21450.83
614.451	21030.83
614.657	20364.83
614.862	20101.83
615.068	19978.83
615.274	19600.83
615.479	19031.83
615.685	18515.83
615.89	18171.83
616.096	17724.83
616.301	17256.83
616.507	16971.83
616.712	16716.83
616.918	16419.83
617.123	16049.83
617.329	15619.83
617.534	15411.83
617.74	15083.83
617.945	14517.83
618.15	14021.83
618.356	13597.83
618.561	13172.83
618.766	12851.83
618.972	12590.83
619.177	11864.83
619.382	9408.83
619.588	3663.83
619.793	836.83
619.998	-14.17
620.203	-0.17
620.408	-8.17
620.614	-0.17
