Data from ChCl_U_MAYP1115451__4__10-46-53-144.txt Node

Date: Thu Jun 06 10:46:53 MDT 2024
User: Modes Lab
Spectrometer: MAYP111545
Trigger mode: 0
Integration Time (sec): 4.223000E-2
Scans to average: 1
Electric dark correction enabled: true
Nonlinearity correction enabled: false
Boxcar width: 0
XAxis mode: Wavelengths
Number of Pixels in Spectrum: 2068
>>>>>Begin Spectral Data<<<<<
165.214	1014.33
165.449	-180.67
165.683	34.33
165.918	-16.67
166.152	129.33
166.387	222.33
166.621	502.33
166.856	803.33
167.09	889.33
167.325	834.33
167.559	877.33
167.794	858.33
168.028	879.33
168.263	878.33
168.497	860.33
168.732	864.33
168.966	876.33
169.2	881.33
169.435	893.33
169.669	903.33
169.903	906.33
170.138	879.33
170.372	871.33
170.606	867.33
170.841	887.33
171.075	908.33
171.309	882.33
171.544	843.33
171.778	890.33
172.012	891.33
172.246	856.33
172.48	914.33
172.715	889.33
172.949	886.33
173.183	908.33
173.417	907.33
173.651	907.33
173.885	926.33
174.119	946.33
174.354	883.33
174.588	887.33
174.822	903.33
175.056	887.33
175.29	897.33
175.524	866.33
175.758	884.33
175.992	909.33
176.226	931.33
176.46	919.33
176.694	932.33
176.928	913.33
177.162	941.33
177.396	930.33
177.63	897.33
177.864	930.33
178.097	895.33
178.331	888.33
178.565	901.33
178.799	922.33
179.033	911.33
179.267	951.33
179.5	884.33
179.734	884.33
179.968	922.33
180.202	919.33
180.436	873.33
180.669	875.33
180.903	904.33
181.137	929.33
181.371	927.33
181.604	894.33
181.838	896.33
182.072	932.33
182.305	919.33
182.539	925.33
182.772	890.33
183.006	878.33
183.24	923.33
183.473	928.33
183.707	899.33
183.94	925.33
184.174	957.33
184.408	886.33
184.641	986.33
184.875	919.33
185.108	967.33
185.342	937.33
185.575	907.33
185.808	950.33
186.042	943.33
186.275	943.33
186.509	954.33
186.742	933.33
186.976	903.33
187.209	957.33
187.442	917.33
187.676	931.33
187.909	930.33
188.142	935.33
188.376	950.33
188.609	927.33
188.842	940.33
189.076	940.33
189.309	916.33
189.542	950.33
189.775	957.33
190.009	938.33
190.242	951.33
190.475	965.33
190.708	959.33
190.941	938.33
191.174	975.33
191.408	971.33
191.641	947.33
191.874	948.33
192.107	988.33
192.34	983.33
192.573	947.33
192.806	943.33
193.039	983.33
193.272	967.33
193.505	982.33
193.738	954.33
193.971	981.33
194.204	978.33
194.437	1006.33
194.67	982.33
194.903	978.33
195.136	1006.33
195.369	1018.33
195.602	980.33
195.835	1030.33
196.068	961.33
196.301	1010.33
196.533	983.33
196.766	994.33
196.999	1031.33
197.232	988.33
197.465	966.33
197.698	1018.33
197.93	1007.33
198.163	1044.33
198.396	994.33
198.629	1013.33
198.861	999.33
199.094	1029.33
199.327	999.33
199.559	1007.33
199.792	1044.33
200.025	988.33
200.257	1066.33
200.49	996.33
200.723	987.33
200.955	999.33
201.188	1021.33
201.42	1018.33
201.653	1026.33
201.886	1071.33
202.118	1030.33
202.351	1033.33
202.583	1047.33
202.816	1029.33
203.048	1034.33
203.281	1064.33
203.513	1072.33
203.745	1036.33
203.978	1063.33
204.21	1077.33
204.443	1078.33
204.675	1069.33
204.907	1076.33
205.14	1056.33
205.372	1045.33
205.605	1105.33
205.837	1114.33
206.069	1119.33
206.302	1127.33
206.534	1096.33
206.766	1151.33
206.998	1075.33
207.231	1079.33
207.463	1116.33
207.695	1103.33
207.927	1091.33
208.159	1111.33
208.392	1177.33
208.624	1125.33
208.856	1182.33
209.088	1129.33
209.32	1148.33
209.552	1109.33
209.784	1196.33
210.017	1151.33
210.249	1185.33
210.481	1156.33
210.713	1165.33
210.945	1203.33
211.177	1227.33
211.409	1223.33
211.641	1261.33
211.873	1255.33
212.105	1253.33
212.337	1290.33
212.569	1295.33
212.801	1261.33
213.033	1246.33
213.264	1303.33
213.496	1352.33
213.728	1342.33
213.96	1399.33
214.192	1403.33
214.424	1440.33
214.656	1488.33
214.887	1513.33
215.119	1580.33
215.351	1605.33
215.583	1678.33
215.815	1755.33
216.046	1812.33
216.278	1905.33
216.51	2047.33
216.741	2085.33
216.973	2260.33
217.205	2343.33
217.436	2521.33
217.668	2712.33
217.9	2916.33
218.131	3095.33
218.363	3335.33
218.595	3575.33
218.826	3801.33
219.058	4048.33
219.289	4311.33
219.521	4649.33
219.752	5004.33
219.984	5325.33
220.215	5805.33
220.447	6081.33
220.678	6426.33
220.91	6885.33
221.141	7398.33
221.373	7839.33
221.604	8188.33
221.836	8743.33
222.067	9189.33
222.298	9771.33
222.53	10285.33
222.761	10718.33
222.993	11399.33
223.224	11927.33
223.455	12431.33
223.686	13181.33
223.918	13604.33
224.149	14161.33
224.38	14867.33
224.612	15546.33
224.843	16085.33
225.074	16401.33
225.305	17322.33
225.536	17805.33
225.768	18375.33
225.999	19220.33
226.23	19766.33
226.461	20272.33
226.692	20985.33
226.923	21562.33
227.155	22125.33
227.386	22722.33
227.617	23279.33
227.848	24071.33
228.079	24485.33
228.31	25107.33
228.541	25782.33
228.772	26219.33
229.003	26827.33
229.234	27521.33
229.465	27991.33
229.696	28445.33
229.927	29022.33
230.158	29475.33
230.389	30089.33
230.62	30605.33
230.85	31167.33
231.081	31842.33
231.312	32373.33
231.543	32803.33
231.774	33431.33
232.005	33659.33
232.236	34548.33
232.466	34693.33
232.697	35192.33
232.928	35721.33
233.159	36454.33
233.389	36699.33
233.62	37303.33
233.851	37512.33
234.082	38146.33
234.312	38551.33
234.543	39175.33
234.774	39565.33
235.004	39777.33
235.235	40324.33
235.466	40786.33
235.696	40921.33
235.927	40936.33
236.157	41713.33
236.388	41948.33
236.618	42413.33
236.849	42705.33
237.08	43184.33
237.31	43440.33
237.541	43886.33
237.771	44191.33
238.002	44496.33
238.232	44708.33
238.463	45317.33
238.693	45366.33
238.923	45707.33
239.154	45805.33
239.384	46277.33
239.615	46782.33
239.845	46838.33
240.075	47242.33
240.306	47407.33
240.536	47266.33
240.766	47704.33
240.997	47883.33
241.227	48204.33
241.457	48443.33
241.687	48860.33
241.918	49097.33
242.148	49123.33
242.378	49573.33
242.608	49639.33
242.839	49749.33
243.069	50194.33
243.299	50489.33
243.529	50446.33
243.759	50706.33
243.989	51088.33
244.22	50774.33
244.45	50913.33
244.68	51132.33
244.91	51380.33
245.14	51532.33
245.37	51446.33
245.6	51809.33
245.83	51731.33
246.06	52124.33
246.29	52325.33
246.52	52404.33
246.75	52533.33
246.98	52620.33
247.21	52663.33
247.44	52602.33
247.67	52840.33
247.9	52975.33
248.13	52978.33
248.359	53208.33
248.589	53409.33
248.819	53274.33
249.049	53236.33
249.279	53361.33
249.509	53618.33
249.738	53862.33
249.968	53569.33
250.198	53590.33
250.428	53936.33
250.657	53762.33
250.887	53696.33
251.117	53941.33
251.347	53948.33
251.576	53988.33
251.806	54188.33
252.036	53867.33
252.265	54164.33
252.495	54112.33
252.725	53963.33
252.954	54145.33
253.184	54007.33
253.413	54112.33
253.643	54257.33
253.873	54094.33
254.102	54142.33
254.332	53927.33
254.561	54093.33
254.791	54172.33
255.02	54191.33
255.25	54039.33
255.479	54087.33
255.708	54158.33
255.938	53989.33
256.167	53543.33
256.397	53804.33
256.626	53891.33
256.856	53728.33
257.085	53695.33
257.314	53729.33
257.544	53747.33
257.773	53836.33
258.002	53380.33
258.232	53511.33
258.461	53350.33
258.69	53386.33
258.919	53215.33
259.149	53207.33
259.378	53003.33
259.607	52770.33
259.836	52965.33
260.065	52695.33
260.295	52898.33
260.524	52800.33
260.753	52474.33
260.982	52789.33
261.211	52469.33
261.44	52468.33
261.669	52457.33
261.899	52298.33
262.128	52510.33
262.357	52370.33
262.586	51992.33
262.815	52105.33
263.044	51991.33
263.273	51922.33
263.502	51586.33
263.731	51772.33
263.96	51523.33
264.189	51259.33
264.418	51617.33
264.646	51568.33
264.875	51269.33
265.104	50931.33
265.333	50884.33
265.562	50711.33
265.791	51038.33
266.02	50772.33
266.249	50806.33
266.477	50674.33
266.706	50688.33
266.935	50479.33
267.164	50528.33
267.393	50528.33
267.621	50289.33
267.85	50142.33
268.079	50166.33
268.307	50182.33
268.536	49896.33
268.765	50132.33
268.993	49778.33
269.222	49996.33
269.451	49715.33
269.679	49700.33
269.908	49717.33
270.137	49540.33
270.365	49708.33
270.594	49532.33
270.822	49598.33
271.051	49597.33
271.279	49467.33
271.508	49496.33
271.736	49261.33
271.965	49380.33
272.193	49322.33
272.422	49359.33
272.65	49220.33
272.879	49372.33
273.107	49280.33
273.336	49246.33
273.564	49432.33
273.792	49531.33
274.021	49359.33
274.249	49155.33
274.477	49293.33
274.706	49133.33
274.934	49217.33
275.162	49005.33
275.391	49234.33
275.619	49319.33
275.847	49399.33
276.075	49332.33
276.304	49458.33
276.532	49038.33
276.76	49407.33
276.988	49448.33
277.216	49505.33
277.445	49332.33
277.673	49536.33
277.901	49637.33
278.129	49564.33
278.357	49585.33
278.585	49521.33
278.813	49490.33
279.041	49430.33
279.269	49786.33
279.497	49620.33
279.725	49895.33
279.954	49516.33
280.182	49610.33
280.41	50037.33
280.637	49866.33
280.865	49811.33
281.093	49763.33
281.321	49696.33
281.549	49759.33
281.777	49820.33
282.005	49744.33
282.233	49932.33
282.461	49939.33
282.689	49820.33
282.916	49863.33
283.144	49960.33
283.372	49908.33
283.6	49996.33
283.828	50167.33
284.055	50164.33
284.283	50268.33
284.511	50204.33
284.739	50135.33
284.966	50170.33
285.194	50280.33
285.422	50138.33
285.649	50166.33
285.877	50246.33
286.105	50334.33
286.332	50219.33
286.56	50189.33
286.788	50108.33
287.015	50214.33
287.243	50272.33
287.47	50116.33
287.698	50214.33
287.925	49961.33
288.153	50418.33
288.381	50407.33
288.608	50248.33
288.836	50542.33
289.063	50570.33
289.29	50513.33
289.518	50601.33
289.745	50416.33
289.973	50388.33
290.2	50300.33
290.428	50390.33
290.655	50496.33
290.882	50633.33
291.11	50662.33
291.337	50292.33
291.564	50465.33
291.792	50745.33
292.019	50571.33
292.246	50413.33
292.473	50544.33
292.701	50613.33
292.928	50490.33
293.155	50611.33
293.382	50726.33
293.61	50631.33
293.837	50540.33
294.064	50450.33
294.291	50582.33
294.518	50673.33
294.745	50481.33
294.972	50689.33
295.2	50666.33
295.427	50301.33
295.654	50344.33
295.881	50380.33
296.108	50333.33
296.335	50488.33
296.562	50316.33
296.789	50237.33
297.016	50044.33
297.243	50145.33
297.47	50222.33
297.697	50202.33
297.924	50241.33
298.151	50087.33
298.378	50043.33
298.604	50113.33
298.831	50049.33
299.058	50121.33
299.285	50014.33
299.512	49894.33
299.739	49918.33
299.966	49850.33
300.192	49646.33
300.419	49768.33
300.646	49286.33
300.873	49584.33
301.099	49355.33
301.326	49618.33
301.553	49397.33
301.78	49452.33
302.006	48930.33
302.233	48702.33
302.46	49023.33
302.686	48744.33
302.913	48808.33
303.14	48449.33
303.366	48415.33
303.593	48667.33
303.819	48565.33
304.046	48602.33
304.272	48389.33
304.499	48347.33
304.725	47860.33
304.952	48129.33
305.179	47837.33
305.405	47869.33
305.631	47744.33
305.858	47669.33
306.084	47468.33
306.311	47644.33
306.537	47436.33
306.764	47194.33
306.99	47450.33
307.216	47148.33
307.443	47303.33
307.669	46849.33
307.895	46741.33
308.122	46686.33
308.348	46748.33
308.574	46377.33
308.801	46321.33
309.027	46209.33
309.253	46208.33
309.479	46300.33
309.706	45922.33
309.932	45764.33
310.158	45733.33
310.384	45645.33
310.61	45354.33
310.837	45631.33
311.063	45381.33
311.289	45129.33
311.515	45220.33
311.741	45146.33
311.967	44858.33
312.193	44762.33
312.419	44810.33
312.645	44684.33
312.871	44526.33
313.097	44424.33
313.323	44274.33
313.549	44251.33
313.775	44026.33
314.001	43831.33
314.227	43921.33
314.453	43723.33
314.679	43540.33
314.905	43468.33
315.131	43203.33
315.357	42876.33
315.583	42934.33
315.809	43052.33
316.034	42845.33
316.26	42678.33
316.486	42471.33
316.712	42404.33
316.938	42320.33
317.163	42163.33
317.389	42207.33
317.615	42054.33
317.841	42028.33
318.066	41947.33
318.292	41536.33
318.518	41523.33
318.743	41456.33
318.969	41500.33
319.195	41175.33
319.42	41207.33
319.646	40870.33
319.872	41009.33
320.097	40734.33
320.323	40752.33
320.548	40532.33
320.774	40209.33
320.999	40281.33
321.225	40098.33
321.45	40232.33
321.676	40126.33
321.901	39780.33
322.127	39839.33
322.352	39669.33
322.578	39488.33
322.803	39440.33
323.029	39345.33
323.254	39342.33
323.479	39038.33
323.705	39149.33
323.93	39216.33
324.155	38973.33
324.381	38670.33
324.606	38743.33
324.831	38670.33
325.057	38898.33
325.282	38778.33
325.507	38339.33
325.732	38286.33
325.958	38154.33
326.183	38055.33
326.408	37916.33
326.633	37792.33
326.858	37591.33
327.084	37520.33
327.309	37664.33
327.534	37410.33
327.759	37265.33
327.984	37224.33
328.209	37184.33
328.434	37192.33
328.659	37085.33
328.884	37106.33
329.109	36926.33
329.334	36573.33
329.559	36842.33
329.784	36723.33
330.009	36519.33
330.234	36398.33
330.459	36367.33
330.684	36350.33
330.909	35948.33
331.134	36023.33
331.359	36179.33
331.584	35672.33
331.809	35981.33
332.034	35722.33
332.259	35621.33
332.483	35422.33
332.708	35479.33
332.933	35437.33
333.158	35287.33
333.383	35300.33
333.607	35283.33
333.832	34909.33
334.057	34967.33
334.282	34863.33
334.506	34751.33
334.731	34690.33
334.956	34437.33
335.18	34576.33
335.405	34545.33
335.63	34419.33
335.854	34283.33
336.079	34205.33
336.303	34152.33
336.528	34205.33
336.753	34047.33
336.977	33742.33
337.202	33604.33
337.426	33789.33
337.651	33767.33
337.875	33527.33
338.1	33413.33
338.324	33337.33
338.549	33141.33
338.773	33188.33
338.997	33202.33
339.222	33177.33
339.446	32834.33
339.671	32934.33
339.895	32690.33
340.119	32596.33
340.344	32759.33
340.568	32574.33
340.792	32313.33
341.017	32358.33
341.241	32238.33
341.465	32331.33
341.689	32401.33
341.914	32096.33
342.138	31906.33
342.362	31894.33
342.586	31972.33
342.811	31703.33
343.035	31772.33
343.259	31737.33
343.483	31385.33
343.707	31238.33
343.931	31444.33
344.155	31191.33
344.38	31095.33
344.604	31210.33
344.828	30924.33
345.052	30938.33
345.276	30897.33
345.5	30799.33
345.724	30600.33
345.948	30717.33
346.172	30580.33
346.396	30435.33
346.62	30301.33
346.844	30569.33
347.068	30380.33
347.292	30301.33
347.515	30153.33
347.739	30293.33
347.963	29794.33
348.187	30114.33
348.411	29607.33
348.635	29651.33
348.859	29639.33
349.082	29536.33
349.306	29655.33
349.53	29287.33
349.754	29308.33
349.977	29171.33
350.201	29009.33
350.425	28933.33
350.649	28914.33
350.872	28893.33
351.096	28786.33
351.32	28785.33
351.543	28565.33
351.767	28546.33
351.99	28726.33
352.214	28324.33
352.438	28363.33
352.661	28228.33
352.885	28342.33
353.108	27978.33
353.332	27931.33
353.555	27827.33
353.779	27907.33
354.002	27676.33
354.226	27770.33
354.449	27462.33
354.673	27514.33
354.896	27462.33
355.12	27591.33
355.343	27327.33
355.566	27216.33
355.79	26986.33
356.013	27071.33
356.237	26973.33
356.46	26839.33
356.683	26759.33
356.907	26717.33
357.13	26644.33
357.353	26494.33
357.576	26567.33
357.8	26443.33
358.023	26400.33
358.246	26259.33
358.469	26241.33
358.693	26036.33
358.916	26010.33
359.139	25954.33
359.362	26033.33
359.585	25820.33
359.808	25741.33
360.031	25900.33
360.255	25585.33
360.478	25546.33
360.701	25465.33
360.924	25405.33
361.147	25335.33
361.37	25275.33
361.593	25214.33
361.816	25169.33
362.039	25203.33
362.262	25212.33
362.485	25095.33
362.708	24954.33
362.931	24826.33
363.154	24823.33
363.377	24790.33
363.599	24623.33
363.822	24664.33
364.045	24673.33
364.268	24374.33
364.491	24455.33
364.714	24354.33
364.936	24543.33
365.159	24351.33
365.382	24123.33
365.605	24254.33
365.828	24297.33
366.05	24385.33
366.273	24233.33
366.496	24177.33
366.718	24380.33
366.941	24342.33
367.164	24190.33
367.386	24285.33
367.609	24150.33
367.832	24151.33
368.054	24015.33
368.277	23900.33
368.5	23856.33
368.722	23804.33
368.945	23737.33
369.167	23773.33
369.39	23617.33
369.612	23495.33
369.835	23299.33
370.057	23304.33
370.28	23176.33
370.502	23147.33
370.725	23223.33
370.947	23043.33
371.169	23119.33
371.392	23015.33
371.614	23078.33
371.837	22923.33
372.059	22935.33
372.281	22982.33
372.504	22849.33
372.726	22717.33
372.948	22711.33
373.171	22543.33
373.393	22731.33
373.615	22637.33
373.837	22718.33
374.06	22651.33
374.282	22710.33
374.504	22679.33
374.726	22765.33
374.948	22736.33
375.17	22983.33
375.393	22837.33
375.615	22950.33
375.837	22856.33
376.059	22716.33
376.281	22698.33
376.503	22678.33
376.725	22655.33
376.947	22677.33
377.169	22831.33
377.391	22951.33
377.613	22899.33
377.835	23079.33
378.057	23041.33
378.279	22956.33
378.501	22882.33
378.723	23175.33
378.945	23318.33
379.167	23479.33
379.389	23482.33
379.611	23439.33
379.833	23245.33
380.054	23034.33
380.276	22881.33
380.498	22992.33
380.72	22811.33
380.942	23052.33
381.163	22914.33
381.385	22737.33
381.607	22759.33
381.829	22670.33
382.05	22903.33
382.272	22971.33
382.494	23007.33
382.716	23189.33
382.937	23308.33
383.159	22907.33
383.381	22906.33
383.602	22683.33
383.824	22705.33
384.045	22740.33
384.267	22884.33
384.488	22874.33
384.71	22879.33
384.932	22868.33
385.153	22867.33
385.375	22816.33
385.596	22614.33
385.818	22663.33
386.039	22749.33
386.261	22749.33
386.482	22674.33
386.703	23013.33
386.925	23186.33
387.146	23250.33
387.368	23405.33
387.589	23558.33
387.81	23765.33
388.032	23539.33
388.253	23746.33
388.474	23675.33
388.696	23799.33
388.917	23708.33
389.138	23426.33
389.359	23036.33
389.581	22759.33
389.802	22749.33
390.023	22775.33
390.244	22694.33
390.465	23191.33
390.687	22991.33
390.908	23137.33
391.129	23149.33
391.35	23175.33
391.571	23385.33
391.792	23450.33
392.013	23781.33
392.234	23984.33
392.455	24282.33
392.677	24425.33
392.898	24686.33
393.119	24770.33
393.34	24505.33
393.561	24160.33
393.782	23848.33
394.003	23735.33
394.223	23734.33
394.444	23828.33
394.665	23767.33
394.886	24044.33
395.107	23959.33
395.328	23596.33
395.549	23574.33
395.77	23546.33
395.99	23359.33
396.211	23697.33
396.432	23668.33
396.653	23988.33
396.874	23789.33
397.094	24061.33
397.315	24254.33
397.536	24543.33
397.757	24929.33
397.977	25058.33
398.198	25310.33
398.419	25399.33
398.639	25396.33
398.86	25421.33
399.081	25153.33
399.301	24790.33
399.522	24631.33
399.742	24402.33
399.963	24176.33
400.184	23962.33
400.404	23862.33
400.625	23978.33
400.845	24055.33
401.066	24205.33
401.286	24052.33
401.507	23948.33
401.727	23932.33
401.948	23845.33
402.168	23691.33
402.388	23698.33
402.609	23716.33
402.829	23761.33
403.05	23823.33
403.27	23846.33
403.49	23947.33
403.711	23991.33
403.931	23950.33
404.151	23965.33
404.372	24071.33
404.592	24139.33
404.812	24441.33
405.032	24602.33
405.253	24921.33
405.473	24942.33
405.693	25001.33
405.913	24881.33
406.133	24450.33
406.353	24043.33
406.574	23788.33
406.794	23664.33
407.014	23420.33
407.234	23350.33
407.454	23338.33
407.674	23199.33
407.894	23307.33
408.114	23485.33
408.334	23613.33
408.554	23982.33
408.774	23901.33
408.994	23823.33
409.214	23949.33
409.434	23661.33
409.654	23873.33
409.874	23950.33
410.094	24068.33
410.314	23965.33
410.534	23692.33
410.754	23424.33
410.974	23429.33
411.193	23632.33
411.413	23678.33
411.633	23540.33
411.853	23481.33
412.073	23754.33
412.292	24029.33
412.512	24287.33
412.732	24514.33
412.952	24468.33
413.171	24533.33
413.391	24578.33
413.611	24319.33
413.831	24357.33
414.05	24080.33
414.27	23873.33
414.489	23725.33
414.709	23949.33
414.929	23922.33
415.148	24033.33
415.368	23794.33
415.587	23857.33
415.807	23695.33
416.026	23799.33
416.246	23764.33
416.465	23901.33
416.685	23907.33
416.904	23622.33
417.124	23696.33
417.343	23777.33
417.563	23734.33
417.782	23767.33
418.002	23880.33
418.221	23830.33
418.44	23703.33
418.66	23687.33
418.879	23795.33
419.098	23996.33
419.318	24002.33
419.537	24061.33
419.756	24136.33
419.976	24107.33
420.195	24299.33
420.414	24484.33
420.633	24801.33
420.853	24956.33
421.072	25395.33
421.291	25461.33
421.51	26023.33
421.729	26412.33
421.948	26439.33
422.168	26092.33
422.387	25964.33
422.606	25651.33
422.825	25559.33
423.044	25452.33
423.263	25932.33
423.482	25850.33
423.701	25527.33
423.92	25361.33
424.139	25117.33
424.358	24683.33
424.577	24942.33
424.796	24982.33
425.015	25086.33
425.234	25029.33
425.453	24868.33
425.672	24625.33
425.891	24375.33
426.11	23987.33
426.328	24073.33
426.547	24069.33
426.766	24231.33
426.985	24590.33
427.204	24886.33
427.422	25710.33
427.641	25704.33
427.86	25497.33
428.079	25100.33
428.297	24551.33
428.516	24477.33
428.735	24571.33
428.954	24807.33
429.172	25077.33
429.391	25365.33
429.61	26067.33
429.828	26622.33
430.047	26901.33
430.265	26931.33
430.484	26742.33
430.703	26574.33
430.921	26417.33
431.14	25896.33
431.358	25508.33
431.577	25165.33
431.795	24471.33
432.014	24532.33
432.232	24352.33
432.451	24286.33
432.669	24342.33
432.887	24375.33
433.106	24526.33
433.324	24938.33
433.543	25874.33
433.761	27148.33
433.979	27329.33
434.198	27002.33
434.416	25918.33
434.634	25046.33
434.853	24886.33
435.071	25387.33
435.289	25318.33
435.507	25269.33
435.726	25402.33
435.944	25309.33
436.162	25170.33
436.38	25687.33
436.598	25670.33
436.817	25815.33
437.035	25566.33
437.253	25446.33
437.471	25205.33
437.689	25244.33
437.907	25423.33
438.125	25702.33
438.343	25807.33
438.561	25820.33
438.78	25949.33
438.998	26023.33
439.216	25886.33
439.434	25877.33
439.652	25886.33
439.869	25655.33
440.087	25696.33
440.305	25607.33
440.523	25572.33
440.741	25917.33
440.959	26732.33
441.177	27433.33
441.395	28240.33
441.613	28470.33
441.831	28471.33
442.048	27718.33
442.266	27618.33
442.484	27226.33
442.702	27092.33
442.919	27085.33
443.137	27420.33
443.355	27653.33
443.573	27754.33
443.79	27972.33
444.008	28016.33
444.226	27698.33
444.443	27847.33
444.661	27712.33
444.879	27866.33
445.096	27884.33
445.314	27775.33
445.532	27575.33
445.749	27835.33
445.967	27698.33
446.184	27802.33
446.402	28128.33
446.619	28237.33
446.837	27884.33
447.054	27991.33
447.272	27798.33
447.489	27699.33
447.707	27637.33
447.924	27820.33
448.141	27575.33
448.359	27421.33
448.576	27473.33
448.794	27814.33
449.011	27932.33
449.228	28151.33
449.446	28015.33
449.663	28078.33
449.88	27830.33
450.098	28071.33
450.315	28093.33
450.532	27806.33
450.749	27972.33
450.967	27912.33
451.184	27763.33
451.401	27647.33
451.618	27941.33
451.835	27982.33
452.052	27983.33
452.27	27868.33
452.487	28087.33
452.704	27853.33
452.921	27798.33
453.138	27823.33
453.355	27681.33
453.572	27675.33
453.789	27761.33
454.006	27741.33
454.223	27726.33
454.44	27660.33
454.657	27813.33
454.874	27777.33
455.091	28180.33
455.308	28326.33
455.525	28641.33
455.742	28295.33
455.959	28320.33
456.176	28047.33
456.393	27907.33
456.609	28134.33
456.826	28197.33
457.043	28335.33
457.26	28453.33
457.477	28645.33
457.693	28948.33
457.91	29202.33
458.127	29281.33
458.344	29454.33
458.56	29259.33
458.777	29517.33
458.994	29201.33
459.21	29516.33
459.427	29433.33
459.644	29348.33
459.86	29595.33
460.077	29023.33
460.294	28863.33
460.51	28718.33
460.727	28586.33
460.943	28620.33
461.16	28647.33
461.376	28925.33
461.593	28505.33
461.809	28434.33
462.026	28148.33
462.242	27871.33
462.459	27821.33
462.675	28159.33
462.892	28263.33
463.108	28578.33
463.324	28853.33
463.541	28935.33
463.757	29207.33
463.974	29378.33
464.19	29587.33
464.406	29639.33
464.623	29829.33
464.839	29598.33
465.055	30023.33
465.271	29953.33
465.488	29846.33
465.704	29930.33
465.92	29867.33
466.136	29940.33
466.353	29396.33
466.569	28877.33
466.785	28777.33
467.001	28691.33
467.217	28554.33
467.433	28750.33
467.649	28813.33
467.865	28854.33
468.082	29005.33
468.298	29039.33
468.514	28833.33
468.73	28823.33
468.946	28498.33
469.162	28399.33
469.378	28358.33
469.594	28385.33
469.81	28363.33
470.026	28183.33
470.242	28252.33
470.457	28350.33
470.673	28135.33
470.889	28410.33
471.105	28467.33
471.321	28674.33
471.537	28527.33
471.753	28540.33
471.968	28743.33
472.184	28689.33
472.4	28833.33
472.616	29024.33
472.832	29429.33
473.047	29527.33
473.263	29652.33
473.479	29771.33
473.694	29863.33
473.91	29597.33
474.126	29529.33
474.341	29460.33
474.557	29684.33
474.773	29710.33
474.988	30121.33
475.204	30222.33
475.42	30460.33
475.635	30395.33
475.851	30151.33
476.066	29978.33
476.282	30370.33
476.497	30194.33
476.713	30386.33
476.928	30246.33
477.144	30058.33
477.359	30219.33
477.575	30382.33
477.79	30463.33
478.005	30877.33
478.221	30789.33
478.436	30881.33
478.651	30658.33
478.867	30670.33
479.082	30447.33
479.297	30685.33
479.513	30694.33
479.728	31028.33
479.943	31157.33
480.159	31268.33
480.374	31495.33
480.589	31409.33
480.804	31018.33
481.019	30921.33
481.235	31066.33
481.45	31238.33
481.665	31463.33
481.88	31407.33
482.095	31409.33
482.31	31365.33
482.525	31132.33
482.741	31036.33
482.956	31207.33
483.171	31197.33
483.386	31267.33
483.601	31340.33
483.816	31419.33
484.031	31641.33
484.246	31900.33
484.461	32220.33
484.676	32340.33
484.891	32421.33
485.105	32969.33
485.32	35442.33
485.535	40412.33
485.75	44967.33
485.965	49174.33
486.18	49078.33
486.395	44967.33
486.609	40532.33
486.824	35838.33
487.039	32809.33
487.254	32490.33
487.469	32171.33
487.683	32191.33
487.898	31798.33
488.113	31632.33
488.327	31248.33
488.542	31316.33
488.757	31280.33
488.972	31158.33
489.186	31234.33
489.401	31287.33
489.615	31337.33
489.83	31271.33
490.045	31339.33
490.259	31222.33
490.474	31131.33
490.688	31176.33
490.903	31114.33
491.117	31057.33
491.332	31121.33
491.546	30924.33
491.761	30988.33
491.975	30868.33
492.19	30987.33
492.404	31068.33
492.618	31004.33
492.833	31193.33
493.047	31151.33
493.262	30914.33
493.476	31111.33
493.69	30828.33
493.905	30866.33
494.119	30892.33
494.333	30792.33
494.547	30892.33
494.762	30746.33
494.976	30678.33
495.19	30572.33
495.404	30469.33
495.619	30494.33
495.833	30489.33
496.047	30892.33
496.261	31040.33
496.475	31277.33
496.689	31304.33
496.903	30808.33
497.117	30724.33
497.332	30432.33
497.546	30182.33
497.76	30151.33
497.974	30148.33
498.188	30212.33
498.402	30345.33
498.616	30333.33
498.83	30475.33
499.044	30536.33
499.258	30456.33
499.472	30414.33
499.685	30248.33
499.899	30111.33
500.113	30112.33
500.327	29901.33
500.541	29741.33
500.755	29766.33
500.969	29916.33
501.183	29967.33
501.396	30157.33
501.61	30186.33
501.824	30143.33
502.038	30124.33
502.251	30007.33
502.465	30212.33
502.679	30215.33
502.892	30195.33
503.106	29919.33
503.32	29877.33
503.533	29855.33
503.747	29823.33
503.961	29730.33
504.174	29465.33
504.388	29285.33
504.602	29373.33
504.815	29522.33
505.029	29474.33
505.242	29506.33
505.456	29518.33
505.669	29422.33
505.883	29501.33
506.096	29665.33
506.31	29639.33
506.523	29739.33
506.736	29717.33
506.95	29683.33
507.163	29434.33
507.377	29352.33
507.59	29431.33
507.803	29422.33
508.017	29621.33
508.23	29621.33
508.443	29742.33
508.657	29829.33
508.87	29835.33
509.083	29776.33
509.296	29768.33
509.51	29639.33
509.723	29751.33
509.936	29839.33
510.149	29735.33
510.363	30028.33
510.576	29967.33
510.789	29996.33
511.002	30269.33
511.215	30232.33
511.428	30245.33
511.641	30400.33
511.854	30269.33
512.067	30306.33
512.28	30579.33
512.493	30561.33
512.707	30700.33
512.92	30417.33
513.132	30675.33
513.345	31004.33
513.558	30775.33
513.771	30894.33
513.984	30917.33
514.197	30917.33
514.41	30933.33
514.623	31028.33
514.836	31029.33
515.049	31185.33
515.262	31225.33
515.474	31430.33
515.687	31306.33
515.9	31542.33
516.113	31638.33
516.325	31585.33
516.538	31645.33
516.751	31773.33
516.964	31725.33
517.176	31574.33
517.389	31659.33
517.602	31487.33
517.814	31629.33
518.027	31707.33
518.24	31930.33
518.452	31914.33
518.665	31916.33
518.877	32145.33
519.09	32072.33
519.303	32251.33
519.515	32268.33
519.728	32350.33
519.94	32186.33
520.153	32120.33
520.365	32065.33
520.578	32025.33
520.79	31994.33
521.002	32110.33
521.215	32390.33
521.427	32352.33
521.64	32372.33
521.852	32374.33
522.064	32462.33
522.277	32356.33
522.489	32388.33
522.701	32455.33
522.914	32381.33
523.126	32230.33
523.338	32536.33
523.551	32556.33
523.763	32657.33
523.975	32533.33
524.187	32578.33
524.399	32590.33
524.612	32530.33
524.824	32714.33
525.036	32482.33
525.248	32311.33
525.46	32518.33
525.672	32724.33
525.884	32591.33
526.096	32658.33
526.308	32729.33
526.521	32837.33
526.733	32826.33
526.945	32709.33
527.157	32678.33
527.369	32706.33
527.581	32572.33
527.793	32695.33
528.004	32465.33
528.216	32567.33
528.428	32538.33
528.64	32774.33
528.852	32906.33
529.064	32986.33
529.276	32857.33
529.488	32774.33
529.699	32630.33
529.911	32663.33
530.123	32762.33
530.335	32633.33
530.547	32670.33
530.758	32694.33
530.97	32794.33
531.182	32676.33
531.393	32819.33
531.605	32636.33
531.817	32798.33
532.029	32798.33
532.24	32799.33
532.452	32947.33
532.663	32818.33
532.875	32990.33
533.087	32889.33
533.298	33311.33
533.51	32945.33
533.721	32813.33
533.933	33250.33
534.144	33058.33
534.356	32998.33
534.567	33043.33
534.779	33002.33
534.99	32967.33
535.202	33304.33
535.413	32795.33
535.624	32938.33
535.836	32983.33
536.047	33045.33
536.259	32743.33
536.47	32569.33
536.681	32488.33
536.893	32602.33
537.104	32769.33
537.315	32730.33
537.526	32870.33
537.738	32909.33
537.949	32858.33
538.16	32979.33
538.371	32890.33
538.582	32999.33
538.794	32939.33
539.005	33028.33
539.216	32818.33
539.427	33120.33
539.638	33088.33
539.849	32792.33
540.06	32842.33
540.272	32765.33
540.483	32581.33
540.694	32854.33
540.905	32868.33
541.116	32975.33
541.327	32768.33
541.538	32790.33
541.749	32838.33
541.96	32710.33
542.17	32867.33
542.381	32935.33
542.592	32956.33
542.803	32762.33
543.014	32814.33
543.225	32789.33
543.436	32827.33
543.647	32805.33
543.857	32670.33
544.068	32895.33
544.279	32644.33
544.49	32550.33
544.701	32686.33
544.911	32531.33
545.122	32748.33
545.333	32759.33
545.543	32453.33
545.754	32538.33
545.965	32404.33
546.175	32407.33
546.386	32442.33
546.597	32498.33
546.807	32640.33
547.018	32709.33
547.229	32639.33
547.439	32840.33
547.65	32697.33
547.86	33184.33
548.071	32900.33
548.281	33015.33
548.492	32798.33
548.702	32721.33
548.913	32503.33
549.123	32456.33
549.333	32224.33
549.544	32048.33
549.754	32267.33
549.965	32188.33
550.175	32222.33
550.385	32088.33
550.596	32153.33
550.806	32030.33
551.016	32028.33
551.227	32076.33
551.437	32052.33
551.647	32219.33
551.857	32497.33
552.068	32433.33
552.278	32532.33
552.488	32328.33
552.698	32310.33
552.908	32310.33
553.119	32407.33
553.329	32327.33
553.539	32398.33
553.749	32159.33
553.959	32236.33
554.169	32209.33
554.379	32157.33
554.589	31999.33
554.799	32098.33
555.009	32168.33
555.219	32240.33
555.429	32162.33
555.639	32096.33
555.849	31966.33
556.059	32052.33
556.269	32023.33
556.479	31776.33
556.689	31699.33
556.899	31701.33
557.109	31869.33
557.319	31893.33
557.528	31751.33
557.738	31954.33
557.948	31847.33
558.158	31965.33
558.368	31687.33
558.577	31545.33
558.787	31526.33
558.997	31501.33
559.207	31632.33
559.416	31780.33
559.626	31818.33
559.836	32032.33
560.045	31950.33
560.255	32081.33
560.465	32100.33
560.674	31969.33
560.884	32238.33
561.093	32069.33
561.303	31959.33
561.512	31765.33
561.722	31700.33
561.932	31545.33
562.141	31398.33
562.351	31703.33
562.56	31444.33
562.769	31600.33
562.979	31527.33
563.188	31630.33
563.398	31760.33
563.607	31639.33
563.817	31687.33
564.026	31950.33
564.235	31943.33
564.445	31859.33
564.654	31924.33
564.863	31893.33
565.073	31756.33
565.282	31443.33
565.491	31717.33
565.7	31684.33
565.91	31824.33
566.119	31694.33
566.328	31895.33
566.537	31906.33
566.746	32083.33
566.956	32466.33
567.165	32510.33
567.374	32577.33
567.583	32599.33
567.792	32586.33
568.001	32647.33
568.21	32837.33
568.419	32943.33
568.628	32983.33
568.837	33430.33
569.046	33723.33
569.255	34071.33
569.464	34433.33
569.673	34732.33
569.882	34910.33
570.091	34540.33
570.3	34452.33
570.509	34530.33
570.718	34841.33
570.927	35052.33
571.135	35021.33
571.344	35084.33
571.553	35293.33
571.762	35314.33
571.971	35242.33
572.18	34618.33
572.388	34028.33
572.597	33892.33
572.806	34253.33
573.014	35023.33
573.223	35495.33
573.432	36335.33
573.641	36240.33
573.849	36437.33
574.058	36555.33
574.266	36408.33
574.475	36334.33
574.684	36231.33
574.892	35987.33
575.101	35462.33
575.309	35267.33
575.518	34863.33
575.726	34580.33
575.935	34884.33
576.143	35252.33
576.352	35932.33
576.56	36280.33
576.769	36315.33
576.977	36732.33
577.186	37450.33
577.394	37882.33
577.602	38844.33
577.811	38774.33
578.019	38019.33
578.228	36858.33
578.436	36073.33
578.644	35143.33
578.852	34633.33
579.061	35086.33
579.269	35176.33
579.477	35824.33
579.685	35894.33
579.894	36260.33
580.102	36177.33
580.31	35860.33
580.518	35516.33
580.726	36199.33
580.935	37682.33
581.143	39147.33
581.351	40700.33
581.559	41451.33
581.767	40722.33
581.975	39556.33
582.183	38282.33
582.391	36530.33
582.599	35318.33
582.807	34260.33
583.015	33251.33
583.223	32868.33
583.431	32477.33
583.639	32959.33
583.847	33344.33
584.055	33989.33
584.263	34488.33
584.471	34854.33
584.678	35138.33
584.886	35567.33
585.094	35574.33
585.302	35428.33
585.51	35137.33
585.718	34534.33
585.925	33623.33
586.133	32886.33
586.341	32829.33
586.549	32788.33
586.756	33231.33
586.964	33722.33
587.172	34284.33
587.379	34297.33
587.587	33988.33
587.795	33805.33
588.002	33444.33
588.21	33046.33
588.417	32791.33
588.625	32528.33
588.833	31932.33
589.04	31183.33
589.248	31228.33
589.455	31213.33
589.663	30840.33
589.87	30840.33
590.078	30754.33
590.285	30619.33
590.492	30314.33
590.7	30236.33
590.907	30138.33
591.115	29922.33
591.322	30175.33
591.529	30061.33
591.737	30129.33
591.944	30093.33
592.151	30716.33
592.359	31646.33
592.566	32446.33
592.773	33146.33
592.981	33047.33
593.188	32606.33
593.395	31984.33
593.602	31422.33
593.809	30772.33
594.017	30353.33
594.224	30298.33
594.431	30715.33
594.638	30988.33
594.845	31570.33
595.052	31629.33
595.259	31617.33
595.466	30940.33
595.673	30390.33
595.88	30153.33
596.088	29853.33
596.295	29366.33
596.502	29245.33
596.709	29439.33
596.915	29491.33
597.122	29701.33
597.329	29883.33
597.536	29584.33
597.743	29544.33
597.95	29414.33
598.157	29410.33
598.364	30071.33
598.571	30746.33
598.777	30970.33
598.984	30919.33
599.191	30356.33
599.398	30030.33
599.605	29430.33
599.811	29729.33
600.018	29911.33
600.225	29914.33
600.431	29742.33
600.638	29784.33
600.845	29587.33
601.052	29548.33
601.258	29349.33
601.465	29079.33
601.671	29017.33
601.878	28922.33
602.085	29200.33
602.291	29188.33
602.498	29175.33
602.704	29265.33
602.911	29525.33
603.117	29554.33
603.324	29153.33
603.53	28689.33
603.737	27798.33
603.943	27299.33
604.15	26572.33
604.356	25886.33
604.562	25642.33
604.769	25591.33
604.975	25431.33
605.181	25358.33
605.388	25302.33
605.594	25105.33
605.8	24518.33
606.007	24030.33
606.213	23426.33
606.419	22879.33
606.625	22758.33
606.832	22754.33
607.038	22345.33
607.244	22046.33
607.45	21833.33
607.656	21219.33
607.863	20972.33
608.069	20557.33
608.275	20292.33
608.481	20156.33
608.687	19686.33
608.893	19178.33
609.099	18678.33
609.305	18674.33
609.511	18717.33
609.717	18615.33
609.923	18322.33
610.129	17808.33
610.335	17331.33
610.541	16906.33
610.747	16489.33
610.953	16229.33
611.159	16058.33
611.365	15783.33
611.571	15358.33
611.776	14966.33
611.982	14564.33
612.188	14229.33
612.394	13944.33
612.6	13668.33
612.806	13404.33
613.011	12930.33
613.217	12809.33
613.423	12373.33
613.628	12187.33
613.834	11826.33
614.04	11586.33
614.246	11272.33
614.451	11003.33
614.657	10716.33
614.862	10640.33
615.068	10358.33
615.274	10233.33
615.479	9907.33
615.685	9506.33
615.89	9262.33
616.096	8935.33
616.301	8741.33
616.507	8551.33
616.712	8435.33
616.918	8244.33
617.123	7990.33
617.329	7778.33
617.534	7534.33
617.74	7363.33
617.945	7252.33
618.15	6915.33
618.356	6655.33
618.561	6521.33
618.766	6332.33
618.972	6080.33
619.177	5807.33
619.382	4496.33
619.588	1791.33
619.793	439.33
619.998	-8.67
620.203	3.33
620.408	-6.67
620.614	-5.67
