Data from dark_MAYP1115451__0__15-36-46-122.txt Node

Date: Thu Jun 13 15:36:46 MDT 2024
User: Modes Lab
Spectrometer: MAYP111545
Trigger mode: 0
Integration Time (sec): 2.000000E-2
Scans to average: 5
Electric dark correction enabled: true
Nonlinearity correction enabled: false
Boxcar width: 5
XAxis mode: Wavelengths
Number of Pixels in Spectrum: 2068
>>>>>Begin Spectral Data<<<<<
165.214	168
165.449	177.99
165.683	201.78
165.918	222.96
166.152	240.47
166.387	253.08
166.621	196.97
166.856	246.88
167.09	277.62
167.325	312.32
167.559	339.93
167.794	366.02
168.028	379.37
168.263	380.52
168.497	379.01
168.732	378.41
168.966	378.73
169.2	378.04
169.435	378.82
169.669	378.55
169.903	378.88
170.138	379.68
170.372	377.84
170.606	376.88
170.841	375.72
171.075	375.32
171.309	373.21
171.544	372.68
171.778	372.1
172.012	372.57
172.246	371.93
172.48	371.99
172.715	371.92
172.949	372.55
173.183	371.99
173.417	372.72
173.651	373.88
173.885	374.81
174.119	375.06
174.354	374.92
174.588	375.42
174.822	375.97
175.056	375.97
175.29	376.04
175.524	375.66
175.758	375.66
175.992	376.19
176.226	374.88
176.46	374.04
176.694	375.01
176.928	376.12
177.162	375.32
177.396	375.95
177.63	375.97
177.864	375.97
178.097	377.12
178.331	377.97
178.565	378.37
178.799	379.42
179.033	379.77
179.267	377.52
179.5	376.59
179.734	376.08
179.968	376.64
180.202	376.33
180.436	375.46
180.669	374.57
180.903	373.72
181.137	372.88
181.371	372.79
181.604	372.13
181.838	372.48
182.072	372.86
182.305	373.79
182.539	371.77
182.772	372.82
183.006	372.84
183.24	372.5
183.473	377.79
183.707	378.68
183.94	377.06
184.174	377.28
184.408	377.92
184.641	377.22
184.875	376.15
185.108	378.1
185.342	378.26
185.575	378.68
185.808	379.06
186.042	375.21
186.275	373.57
186.509	374.92
186.742	376.15
186.976	375.21
187.209	375.72
187.442	377.68
187.676	375.39
187.909	373.22
188.142	372.06
188.376	370.93
188.609	369.5
188.842	369.04
189.076	369.62
189.309	368.04
189.542	368.01
189.775	367.9
190.009	366.15
190.242	366.81
190.475	367.79
190.708	369.1
190.941	369.93
191.174	370.82
191.408	371.41
191.641	370.44
191.874	370.46
192.107	372.13
192.34	372.32
192.573	373.12
192.806	374.68
193.039	375.26
193.272	374.75
193.505	373.62
193.738	373.73
193.971	374.17
194.204	374.19
194.437	374.52
194.67	372.95
194.903	371.84
195.136	371.26
195.369	369.95
195.602	369.02
195.835	368.92
196.068	370.39
196.301	369.21
196.533	369.02
196.766	368.7
196.999	369.95
197.232	369.55
197.465	370.15
197.698	369.66
197.93	369.99
198.163	370.35
198.396	370.95
198.629	370.13
198.861	370.93
199.094	371.21
199.327	371.52
199.559	370.37
199.792	371.02
200.025	370.7
200.257	372.12
200.49	372.12
200.723	373.24
200.955	372.72
201.188	373.68
201.42	373.84
201.653	373.72
201.886	374.08
202.118	374.33
202.351	374.75
202.583	375.99
202.816	375.68
203.048	375.93
203.281	374.62
203.513	374.53
203.745	374.73
203.978	373.9
204.21	373.26
204.443	371.79
204.675	370.5
204.907	370.1
205.14	369.81
205.372	368.7
205.605	368.44
205.837	368.95
206.069	369.1
206.302	368.46
206.534	368.48
206.766	369.53
206.998	370.64
207.231	371.92
207.463	371.81
207.695	372.64
207.927	373.06
208.159	373.02
208.392	372.37
208.624	372.75
208.856	372.39
209.088	372.95
209.32	373.26
209.552	372.5
209.784	372.44
210.017	373.28
210.249	372.53
210.481	373.28
210.713	373.5
210.945	373.73
211.177	373.42
211.409	373.62
211.641	372.79
211.873	372.01
212.105	373.28
212.337	373.21
212.569	372.95
212.801	373.26
213.033	373.22
213.264	372.73
213.496	373.04
213.728	373.06
213.96	373.68
214.192	374.66
214.424	374.5
214.656	374.1
214.887	373.9
215.119	374.75
215.351	374.21
215.583	374.08
215.815	374.59
216.046	375.08
216.278	374.7
216.51	373.77
216.741	372.88
216.973	372.73
217.205	373.26
217.436	372.9
217.668	374.06
217.9	373.95
218.131	372.35
218.363	372.93
218.595	373.39
218.826	373.68
219.058	375.04
219.289	375.26
219.521	375.35
219.752	374.7
219.984	374.92
220.215	373.02
220.447	373.24
220.678	374.13
220.91	374.24
221.141	372.73
221.373	372.55
221.604	371.46
221.836	371.92
222.067	372.21
222.298	372.01
222.53	373.3
222.761	374.39
222.993	374.24
223.224	374.06
223.455	374.13
223.686	374.5
223.918	375.24
224.149	375.72
224.38	375.48
224.612	374.81
224.843	375.72
225.074	375.9
225.305	375.5
225.536	376.08
225.768	377.3
225.999	376.52
226.23	376.48
226.461	375.77
226.692	376.24
226.923	376.33
227.155	379.3
227.386	378.72
227.617	377.21
227.848	376.35
228.079	377.46
228.31	377.28
228.541	378.3
228.772	378.72
229.003	378.99
229.234	379.44
229.465	379.46
229.696	376.26
229.927	375.73
230.158	377.12
230.389	376.44
230.62	375.44
230.85	375.55
231.081	374.17
231.312	373.7
231.543	373.59
231.774	372.61
232.005	373.64
232.236	374.15
232.466	375.5
232.697	374.99
232.928	375.82
233.159	375.26
233.389	375.44
233.62	376.22
233.851	375.19
234.082	374.52
234.312	374.46
234.543	373.26
234.774	373.04
235.004	372.86
235.235	373.01
235.466	372.66
235.696	372.42
235.927	372.57
236.157	371.61
236.388	373.12
236.618	374.32
236.849	374.9
237.08	375.97
237.31	376.99
237.541	376.88
237.771	376.12
238.002	375.19
238.232	374.93
238.463	374.33
238.693	374.77
238.923	374.28
239.154	373.42
239.384	373.15
239.615	371.99
239.845	370.68
240.075	370.26
240.306	370.95
240.536	371.73
240.766	372.72
240.997	372.48
241.227	373.15
241.457	372.46
241.687	373.53
241.918	373.93
242.148	374.12
242.378	374.68
242.608	374.48
242.839	374.86
243.069	374.12
243.299	373.21
243.529	379.1
243.759	378.64
243.989	380.48
244.22	379.97
244.45	379.44
244.68	380.15
244.91	380.79
245.14	380.02
245.37	379.68
245.6	380.52
245.83	381.01
246.06	374.5
246.29	375.72
246.52	375.1
246.75	374.53
246.98	374.39
247.21	374.53
247.44	374.13
247.67	374.26
247.9	373.5
248.13	374.3
248.359	373.68
248.589	374.1
248.819	373.21
249.049	372.01
249.279	373.12
249.509	373.26
249.738	373.21
249.968	372.77
250.198	372.99
250.428	373.06
250.657	372.06
250.887	372.86
251.117	374.17
251.347	372.81
251.576	373.3
251.806	372.39
252.036	371.99
252.265	371.26
252.495	372.19
252.725	372.39
252.954	372.93
253.184	372.5
253.413	372.52
253.643	371.26
253.873	371.21
254.102	371.37
254.332	372.46
254.561	371.88
254.791	371.32
255.02	370.48
255.25	370.97
255.479	370.62
255.708	371.1
255.938	370.7
256.167	370.13
256.397	369.35
256.626	368.68
256.856	366.66
257.085	366.61
257.314	366.77
257.544	366.77
257.773	365.82
258.002	365.26
258.232	364.01
258.461	363.39
258.69	362.99
258.919	363.66
259.149	363.86
259.378	365.5
259.607	366.17
259.836	365.24
260.065	364.73
260.295	364.9
260.524	364.72
260.753	365.77
260.982	365.26
261.211	366.26
261.44	366.41
261.669	366.41
261.899	365.57
262.128	364.57
262.357	364.95
262.586	365.28
262.815	364.84
263.044	363.57
263.273	369.62
263.502	370.15
263.731	369.97
263.96	368.81
264.189	367.22
264.418	366.84
264.646	365.75
264.875	365.39
265.104	365.08
265.333	364.92
265.562	366.68
265.791	360.19
266.02	358.81
266.249	357.72
266.477	358.72
266.706	359.68
266.935	359.3
267.164	361.12
267.393	362.84
267.621	362.64
267.85	362.55
268.079	362.61
268.307	362.81
268.536	362.41
268.765	362.59
268.993	362.17
269.222	362.97
269.451	363.39
269.679	362.02
269.908	361.21
270.137	360.24
270.365	359.92
270.594	358.44
270.822	357.08
271.051	358.9
271.279	358.97
271.508	358.59
271.736	358.41
271.965	358.15
272.193	358.46
272.422	359.3
272.65	359.62
272.879	358.48
273.107	358.26
273.336	359.57
273.564	359.12
273.792	359.86
274.021	360.42
274.249	360.48
274.477	361.13
274.706	361.53
274.934	360.35
275.162	361.42
275.391	362.22
275.619	362.55
275.847	362.41
276.075	361.99
276.304	360.97
276.532	360.86
276.76	359.81
276.988	358.88
277.216	358.95
277.445	358.35
277.673	357.77
277.901	358.57
278.129	359.68
278.357	359.68
278.585	359.95
278.813	360.04
279.041	359.44
279.269	359.72
279.497	359.79
279.725	358.68
279.954	359.22
280.182	358.7
280.41	358.33
280.637	357.59
280.865	357.84
281.093	358.01
281.321	358.72
281.549	358.66
281.777	359.21
282.005	360.21
282.233	361.32
282.461	359.97
282.689	360.55
282.916	360.88
283.144	361.52
283.372	360.1
283.6	360.04
283.828	358.82
284.055	358.62
284.283	359.35
284.511	358.1
284.739	357.88
284.966	357.82
285.194	357.59
285.422	357.33
285.649	355.99
285.877	355.99
286.105	355.62
286.332	356.02
286.56	357.84
286.788	357.02
287.015	356.92
287.243	356.7
287.47	358.17
287.698	357.17
287.925	358.02
288.153	358.28
288.381	359.15
288.608	358.7
288.836	357.82
289.063	357.06
289.29	356.72
289.518	357.26
289.745	357.3
289.973	356.88
290.2	357.46
290.428	355.95
290.655	356.42
290.882	355.92
291.11	356.82
291.337	357.64
291.564	356.59
291.792	355.84
292.019	355.04
292.246	354.97
292.473	354.22
292.701	354.88
292.928	353.99
293.155	354.95
293.382	355.37
293.61	354.24
293.837	352.99
294.064	353.08
294.291	352.72
294.518	353.42
294.745	353.86
294.972	353.86
295.2	353.39
295.427	354.32
295.654	353.35
295.881	353.01
296.108	353.62
296.335	354.59
296.562	355.73
296.789	356.72
297.016	356.1
297.243	354.9
297.47	355.19
297.697	354.66
297.924	354.52
298.151	352.57
298.378	352.86
298.604	352.28
298.831	351.72
299.058	351.12
299.285	350.39
299.512	350.04
299.739	350.44
299.966	351.22
300.192	351.22
300.419	351.39
300.646	352.19
300.873	351.53
301.099	352.53
301.326	353.26
301.553	352.64
301.78	356.1
302.006	355.53
302.233	355.72
302.46	354.75
302.686	355.15
302.913	354.55
303.14	355.21
303.366	355.42
303.593	354.5
303.819	354.46
304.046	354.33
304.272	351.21
304.499	352.92
304.725	352.04
304.952	352.52
305.179	352.06
305.405	353.77
305.631	353.68
305.858	353.79
306.084	353.72
306.311	354.15
306.537	354.55
306.764	354.44
306.99	353.12
307.216	353.61
307.443	352.33
307.669	353.02
307.895	351.1
308.122	350.64
308.348	349.95
308.574	349.32
308.801	349.92
309.027	349.84
309.253	349.81
309.479	350.15
309.706	351.41
309.932	352.28
310.158	351.82
310.384	352.59
310.61	353.95
310.837	354.19
311.063	354.3
311.289	351.66
311.515	351.02
311.741	349.68
311.967	349.62
312.193	348.73
312.419	349.13
312.645	348.48
312.871	347.97
313.097	346.04
313.323	346.1
313.549	348.12
313.775	349.35
314.001	349.06
314.227	349.79
314.453	349.93
314.679	349.88
314.905	348.57
315.131	349.22
315.357	350.19
315.583	350.72
315.809	349.82
316.034	348.19
316.26	347.59
316.486	348.92
316.712	349.21
316.938	349.1
317.163	349.21
317.389	348.55
317.615	347.62
317.841	347.26
318.066	347.46
318.292	347.57
318.518	346.95
318.743	346.21
318.969	345.57
319.195	346.84
319.42	345.59
319.646	344.82
319.872	345.9
320.097	345.73
320.323	345.88
320.548	348.17
320.774	349.86
320.999	350.12
321.225	350.88
321.45	350.55
321.676	349.3
321.901	350.28
322.127	350.46
322.352	350.13
322.578	352.12
322.803	352.3
323.029	349.53
323.254	348.46
323.479	349.15
323.705	348.88
323.93	348.46
324.155	348.42
324.381	347.92
324.606	347.41
324.831	349.24
325.057	347.95
325.282	347.04
325.507	347.15
325.732	347.77
325.958	347.42
326.183	347.53
326.408	347.86
326.633	348.19
326.858	348.46
327.084	348.66
327.309	347.15
327.534	347.33
327.759	347.41
327.984	347.97
328.209	346.37
328.434	346.92
328.659	347.86
328.884	348.99
329.109	347.99
329.334	347.7
329.559	347.7
329.784	348.28
330.009	347.79
330.234	347.88
330.459	347.44
330.684	348.57
330.909	347.79
331.134	346.32
331.359	344.75
331.584	345.95
331.809	345.19
332.034	344.42
332.259	343.64
332.483	343.88
332.708	343.57
332.933	344.42
333.158	343.35
333.383	344.19
333.607	345.81
333.832	346.12
334.057	345.42
334.282	346.42
334.506	348.28
334.731	347.99
334.956	348.53
335.18	349.28
335.405	347.41
335.63	347.44
335.854	346.77
336.079	346.04
336.303	346.33
336.528	345.82
336.753	346.02
336.977	344.66
337.202	344.86
337.426	343.04
337.651	341.59
337.875	342.82
338.1	343.37
338.324	342.86
338.549	342.75
338.773	342.26
338.997	343.66
339.222	341.86
339.446	342.26
339.671	342.3
339.895	342.77
340.119	343.35
340.344	343.17
340.568	343.08
340.792	342.88
341.017	342.72
341.241	343.5
341.465	342.82
341.689	344.28
341.914	343.48
342.138	343.1
342.362	343.97
342.586	343.97
342.811	342.95
343.035	342.13
343.259	342.15
343.483	342.13
343.707	341.32
343.931	343.48
344.155	342.88
344.38	343.92
344.604	344.32
344.828	344.82
345.052	344.88
345.276	345.57
345.5	345.28
345.724	346.01
345.948	346.19
346.172	346.72
346.396	344.24
346.62	347.79
346.844	346.53
347.068	346.01
347.292	345.26
347.515	345.55
347.739	350.66
347.963	350.52
348.187	349.64
348.411	349.21
348.635	349.75
348.859	349.3
349.082	346.17
349.306	345.93
349.53	346.42
349.754	346.99
349.977	346.15
350.201	340.77
350.425	342.46
350.649	343.04
350.872	343.81
351.096	342.52
351.32	342.82
351.543	342.48
351.767	343.42
351.99	343.24
352.214	341.3
352.438	342.13
352.661	341.9
352.885	341.01
353.108	340.46
353.332	339.44
353.555	339.22
353.779	339.66
354.002	340.72
354.226	341.22
354.449	342.06
354.673	343.44
354.896	342.68
355.12	342.88
355.343	342.26
355.566	342.46
355.79	342.04
356.013	343.33
356.237	342.73
356.46	341.72
356.683	340.9
356.907	339.32
357.13	338.22
357.353	338.17
357.576	336.93
357.8	337.81
358.023	337.44
358.246	338.15
358.469	338.1
358.693	338.06
358.916	338.95
359.139	339.19
359.362	339.52
359.585	340.55
359.808	340.68
360.031	341.3
360.255	341.26
360.478	342.79
360.701	342.39
360.924	341.95
361.147	342.28
361.37	341.79
361.593	343.37
361.816	343.93
362.039	343.82
362.262	343.99
362.485	343.33
362.708	344.13
362.931	342.72
363.154	343.17
363.377	341.95
363.599	341.12
363.822	340.52
364.045	340.3
364.268	339.7
364.491	339.06
364.714	338.53
364.936	340.06
365.159	339.17
365.382	338.72
365.605	338.53
365.828	344.12
366.05	344.66
366.273	345.01
366.496	343.61
366.718	344.75
366.941	345.66
367.164	346.08
367.386	344.97
367.609	345.35
367.832	346.3
368.054	346.37
368.277	341.88
368.5	341.19
368.722	341.24
368.945	341.55
369.167	340.75
369.39	339.75
369.612	339.41
369.835	341.42
370.057	342.53
370.28	342.06
370.502	341.93
370.725	341.48
370.947	342.26
371.169	342.77
371.392	343.64
371.614	342.28
371.837	341.88
372.059	342.08
372.281	341.22
372.504	339.17
372.726	339.35
372.948	339.06
373.171	339.95
373.393	340.15
373.615	338.93
373.837	338.68
374.06	340.39
374.282	340.97
374.504	341.44
374.726	341.35
374.948	342.3
375.17	342.48
375.393	342.66
375.615	342.97
375.837	342.39
376.059	343.82
376.281	343.7
376.503	343.53
376.725	344.59
376.947	343.13
377.169	342.81
377.391	341.84
377.613	342.26
377.835	343.35
378.057	341.9
378.279	342.42
378.501	342.17
378.723	341.01
378.945	341.59
379.167	340.46
379.389	341.93
379.611	342.48
379.833	342.7
380.054	342.08
380.276	342.04
380.498	342.15
380.72	342.52
380.942	342.48
381.163	343.92
381.385	343.17
381.607	343.62
381.829	343.75
382.05	343.88
382.272	344.17
382.494	345.22
382.716	343.82
382.937	344.08
383.159	343.84
383.381	343.81
383.602	342.72
383.824	343.32
384.045	342.93
384.267	342.06
384.488	341.28
384.71	341.41
384.932	340.26
385.153	341.28
385.375	341.75
385.596	340.72
385.818	341.19
386.039	340.15
386.261	339.9
386.482	339.99
386.703	340.46
386.925	340.06
387.146	339.52
387.368	339.46
387.589	338.62
387.81	338.86
388.032	339.32
388.253	339.64
388.474	340.5
388.696	340.62
388.917	340.95
389.138	341.82
389.359	342.7
389.581	343.52
389.802	343.77
390.023	344.93
390.244	343.86
390.465	343.35
390.687	341.7
390.908	341.39
391.129	342.92
391.35	341.84
391.571	341.22
391.792	340.7
392.013	339.75
392.234	339.75
392.455	338.79
392.677	339.3
392.898	339.81
393.119	339.88
393.34	339.73
393.561	337.28
393.782	338.9
394.003	339.08
394.223	339.17
394.444	339.81
394.665	339.86
394.886	340.73
395.107	340.37
395.328	340.19
395.549	339.7
395.77	340.86
395.99	341.04
396.211	339.88
396.432	339.35
396.653	340.37
396.874	340.13
397.094	340.33
397.315	339.93
397.536	340.24
397.757	340.88
397.977	340.9
398.198	340.48
398.419	339.9
398.639	340.41
398.86	340.24
399.081	339.32
399.301	338.81
399.522	338.08
399.742	337.95
399.963	337.41
400.184	335.61
400.404	335.95
400.625	335.44
400.845	335.75
401.066	335.33
401.286	335.59
401.507	335.82
401.727	337.21
401.948	337.01
402.168	336.28
402.388	336.04
402.609	337.9
402.829	338.1
403.05	338.86
403.27	339.33
403.49	338.7
403.711	338.48
403.931	340.13
404.151	339.42
404.372	339.64
404.592	340.13
404.812	340.68
405.032	340.97
405.253	340.46
405.473	339.17
405.693	340.42
405.913	340.92
406.133	340.79
406.353	347.06
406.574	347.7
406.794	348.01
407.014	348.48
407.234	347.72
407.454	346.15
407.674	345.86
407.894	346.86
408.114	345.68
408.334	345.75
408.554	345.1
408.774	336.24
408.994	334.9
409.214	334.52
409.434	334.21
409.654	336.41
409.874	336.9
410.094	337.62
410.314	337.08
410.534	336.19
410.754	336.26
410.974	337.17
411.193	337.9
411.413	337.52
411.633	337.42
411.853	337.57
412.073	336.04
412.292	335.99
412.512	337.01
412.732	337.1
412.952	338.22
413.171	337.21
413.391	337.42
413.611	337.46
413.831	338.55
414.05	338.28
414.27	337.82
414.489	338.01
414.709	338.48
414.929	338.17
415.148	337.3
415.368	336.84
415.587	338.08
415.807	337.59
416.026	337.97
416.246	337.06
416.465	337.64
416.685	337.79
416.904	337.39
417.124	336.7
417.343	336.19
417.563	337.02
417.782	336.61
418.002	337.73
418.221	336.61
418.44	336.1
418.66	336.32
418.879	337.42
419.098	336.17
419.318	336.48
419.537	336.93
419.756	337.37
419.976	336.64
420.195	336.24
420.414	334.9
420.633	334.82
420.853	333.99
421.072	332.86
421.291	332.13
421.51	332.06
421.729	331.68
421.948	330.82
422.168	329.32
422.387	330.52
422.606	330.73
422.825	330.17
423.044	329.79
423.263	330.37
423.482	331.55
423.701	330.99
423.92	332.13
424.139	332.1
424.358	332.81
424.577	333.13
424.796	332.57
425.015	332.53
425.234	332.7
425.453	334.22
425.672	333.75
425.891	333.75
426.11	333.41
426.328	333.42
426.547	332.64
426.766	332.39
426.985	332.33
427.204	332.04
427.422	332.57
427.641	332.21
427.86	330.9
428.079	331.84
428.297	331.28
428.516	330.32
428.735	329.95
428.954	331.46
429.172	330.75
429.391	331.28
429.61	331.62
429.828	329.92
430.047	330.7
430.265	331.62
430.484	329.84
430.703	330.88
430.921	331.55
431.14	331.55
431.358	331.01
431.577	331.35
431.795	331.84
432.014	331.21
432.232	332.59
432.451	331.19
432.669	331.44
432.887	331.61
433.106	329.77
433.324	329.97
433.543	330.22
433.761	329.59
433.979	329.46
434.198	328.33
434.416	329.72
434.634	329.66
434.853	330.04
435.071	330.13
435.289	331.3
435.507	332.42
435.726	332.48
435.944	332.61
436.162	331.97
436.38	331.84
436.598	331.92
436.817	330.08
437.035	329.44
437.253	329.1
437.471	328.42
437.689	326.97
437.907	326.92
438.125	326.33
438.343	325.1
438.561	325.52
438.78	324.81
438.998	323.82
439.216	324.73
439.434	324.42
439.652	325.64
439.869	324.66
440.087	325.15
440.305	324.53
440.523	323.24
440.741	323.01
440.959	322.81
441.177	323.7
441.395	323.39
441.613	323.12
441.831	322.75
442.048	321.59
442.266	322.01
442.484	321.39
442.702	321.17
442.919	322.01
443.137	323.92
443.355	322.28
443.573	321.92
443.79	322.39
444.008	321.33
444.226	321.53
444.443	321.52
444.661	321.06
444.879	322.04
445.096	322.26
445.314	322.84
445.532	320.84
445.749	322.66
445.967	322.5
446.184	324.08
446.402	324.12
446.619	323.88
446.837	324.02
447.054	324.08
447.272	323.35
447.489	323.41
447.707	323.24
447.924	322.99
448.141	323.46
448.359	323.72
448.576	322.3
448.794	321.55
449.011	321.77
449.228	321.62
449.446	320.82
449.663	320.97
449.88	320.86
450.098	322.06
450.315	322.46
450.532	321.19
450.749	319.9
450.967	318.92
451.184	319.55
451.401	319.44
451.618	318.88
451.835	319.79
452.052	319.77
452.27	320.15
452.487	319.33
452.704	319.12
452.921	320.41
453.138	321.04
453.355	321.17
453.572	321.17
453.789	321.02
454.006	321.62
454.223	321.06
454.44	320.1
454.657	318.86
454.874	317.46
455.091	316.82
455.308	315.77
455.525	315.04
455.742	314.08
455.959	312.81
456.176	313.02
456.393	311.52
456.609	311.08
456.826	311.77
457.043	313.06
457.26	313.1
457.477	313.61
457.693	313.44
457.91	313.75
458.127	314.48
458.344	315.86
458.56	315.19
458.777	315.93
458.994	316.99
459.21	315.93
459.427	315.44
459.644	315.19
459.86	314.48
460.077	314.59
460.294	315.92
460.51	315.88
460.727	316.33
460.943	316.72
461.16	317.06
461.376	315.82
461.593	316.66
461.809	316.13
462.026	315.95
462.242	315.81
462.459	315.86
462.675	315.12
462.892	315.82
463.108	314.92
463.324	315.61
463.541	316.24
463.757	316.88
463.974	316.02
464.19	317.42
464.406	317.82
464.623	318.24
464.839	317.62
465.055	317.08
465.271	317.75
465.488	317.86
465.704	317.53
465.92	315.73
466.136	315.64
466.353	316.12
466.569	313.57
466.785	314.42
467.001	314.7
467.217	314.35
467.433	314.35
467.649	313.5
467.865	313.41
468.082	313.48
468.298	314.39
468.514	314.42
468.73	313.95
468.946	315.26
469.162	314.73
469.378	314.75
469.594	314.44
469.81	314.04
470.026	313.93
470.242	313.59
470.457	312.93
470.673	312.61
470.889	312.86
471.105	312.24
471.321	311.75
471.537	310.93
471.753	310.84
471.968	310.55
472.184	311.32
472.4	311.9
472.616	311.99
472.832	310.72
473.047	309.95
473.263	309.19
473.479	310.84
473.694	312.53
473.91	312.35
474.126	311.3
474.341	312.28
474.557	311.28
474.773	310.59
474.988	309.61
475.204	310.35
475.42	311.02
475.635	311.37
475.851	310.13
476.066	307.97
476.282	307.52
476.497	307.55
476.713	307.75
476.928	307.3
477.144	306.79
477.359	306.79
477.575	306.5
477.79	306.93
478.005	307.42
478.221	307.35
478.436	307.37
478.651	308.59
478.867	309.48
479.082	307.53
479.297	308.12
479.513	309.1
479.728	309.24
479.943	309.42
480.159	308.55
480.374	307.35
480.589	307.55
480.804	307.95
481.019	307.06
481.235	306.08
481.45	307.21
481.665	307.62
481.88	306.86
482.095	306.99
482.31	306.37
482.525	306.17
482.741	307.68
482.956	306.9
483.171	306.61
483.386	307.1
483.601	308.04
483.816	307.92
484.031	307.86
484.246	308.04
484.461	308.17
484.676	310.22
484.891	313.21
485.105	312.13
485.32	313.7
485.535	314.5
485.75	314.06
485.965	312.86
486.18	312.82
486.395	311.84
486.609	311.42
486.824	310.68
487.039	308.12
487.254	305.86
487.469	306.17
487.683	304.99
487.898	304.08
488.113	303.82
488.327	304.99
488.542	305.24
488.757	305.81
488.972	305.99
489.186	306.48
489.401	306.88
489.615	306.26
489.83	306.42
490.045	306.66
490.259	306.48
490.474	308.06
490.688	308.04
490.903	308.3
491.117	307.1
491.332	306.59
491.546	307.26
491.761	307.81
491.975	307.5
492.19	306.79
492.404	306.88
492.618	307.92
492.833	306.75
493.047	306.5
493.262	307.44
493.476	308.88
493.69	309.42
493.905	309.82
494.119	310.33
494.333	310.66
494.547	311.5
494.762	312.44
494.976	310.92
495.19	311.21
495.404	310.02
495.619	308.79
495.833	309.64
496.047	309.7
496.261	308.33
496.475	308.75
496.689	309.35
496.903	308.88
497.117	308.08
497.332	308.93
497.546	308.62
497.76	309.73
497.974	311.12
498.188	310.22
498.402	309.55
498.616	310.17
498.83	308.61
499.044	307.57
499.258	307.97
499.472	307.21
499.685	306.15
499.899	305.64
500.113	305.3
500.327	303.79
500.541	304.24
500.755	304.22
500.969	303.59
501.183	303.59
501.396	303.82
501.61	303.39
501.824	303.57
502.038	304.99
502.251	305.39
502.465	305.39
502.679	305.52
502.892	303.97
503.106	303.81
503.32	305.01
503.533	304.66
503.747	304.12
503.961	303.62
504.174	303.53
504.388	302.44
504.602	302.13
504.815	301.44
505.029	300.79
505.242	301.01
505.456	301.19
505.669	300.3
505.883	300.28
506.096	300.48
506.31	299.77
506.523	299.77
506.736	299.42
506.95	301.22
507.163	302.04
507.377	302.61
507.59	302.12
507.803	301.72
508.017	301.37
508.23	301.19
508.443	301.66
508.657	301.79
508.87	301.59
509.083	301.72
509.296	299.88
509.51	299.64
509.723	299.55
509.936	300.33
510.149	300.73
510.363	300.24
510.576	301.9
510.789	301.82
511.002	301.86
511.215	301.28
511.428	300.62
511.641	301.81
511.854	301.9
512.067	300.82
512.28	312.79
512.493	313.04
512.707	312.88
512.92	312.42
513.132	312.64
513.345	313.28
513.558	314.77
513.771	314.61
513.984	312.93
514.197	312.21
514.41	312.24
514.623	300.37
514.836	300.08
515.049	302.95
515.262	302.88
515.474	302.7
515.687	303.5
515.9	302.79
516.113	303.61
516.325	303.82
516.538	303.72
516.751	304.13
516.964	303.44
517.176	302.66
517.389	300.64
517.602	301.15
517.814	301.55
518.027	299.53
518.24	299.01
518.452	297.97
518.665	298.53
518.877	298.9
519.09	299.1
519.303	299.61
519.515	301.3
519.728	302.35
519.94	301.22
520.153	300.72
520.365	301.73
520.578	301.79
520.79	302.84
521.002	302.77
521.215	302.35
521.427	301.46
521.64	301.57
521.852	300.37
522.064	298.57
522.277	298.81
522.489	298.55
522.701	298.02
522.914	300.48
523.126	300.26
523.338	299.48
523.551	300.1
523.763	300.77
523.975	300.35
524.187	301.12
524.399	301.64
524.612	302.48
524.824	302.88
525.036	303.19
525.248	301.59
525.46	300.97
525.672	301.61
525.884	301.53
526.096	301.95
526.308	301.35
526.521	300.06
526.733	299.62
526.945	299.21
527.157	298.55
527.369	298.72
527.581	298.33
527.793	298.9
528.004	297.84
528.216	297.64
528.428	296.81
528.64	296.75
528.852	296.48
529.064	296.02
529.276	294.77
529.488	295.17
529.699	294.77
529.911	294.04
530.123	294.3
530.335	294.88
530.547	294.52
530.758	294.17
530.97	293.61
531.182	293.88
531.393	294.48
531.605	294.97
531.817	294.06
532.029	293.48
532.24	294.44
532.452	293.48
532.663	292.79
532.875	293.39
533.087	294.15
533.298	295.44
533.51	296.15
533.721	295.75
533.933	295.46
534.144	298.26
534.356	298.3
534.567	297.79
534.779	298.02
534.99	297.57
535.202	296.3
535.413	295.1
535.624	294.93
535.836	295.24
536.047	294.53
536.259	294.84
536.47	292.61
536.681	292.7
536.893	292.52
537.104	293.21
537.315	294.24
537.526	294.97
537.738	295.68
537.949	294.52
538.16	292.17
538.371	293.52
538.582	300.02
538.794	299.13
539.005	299.48
539.216	298.3
539.427	297.86
539.638	297.46
539.849	296.75
540.06	296.08
540.272	296.22
540.483	296.81
540.694	297.22
540.905	289.81
541.116	290.19
541.327	290.44
541.538	291.21
541.749	291.22
541.96	291.39
542.17	292.21
542.381	292.44
542.592	292.64
542.803	292.46
543.014	290.84
543.225	290.93
543.436	291.3
543.647	290.35
543.857	289.92
544.068	289.62
544.279	290.02
544.49	289.24
544.701	289.88
544.911	290.46
545.122	290.64
545.333	290.59
545.543	290.53
545.754	289.41
545.965	290.17
546.175	288.92
546.386	288.77
546.597	287.99
546.807	287.72
547.018	287.9
547.229	286.95
547.439	288.15
547.65	288.52
547.86	287.92
548.071	288.42
548.281	287.41
548.492	288.52
548.702	288.75
548.913	288.92
549.123	289.08
549.333	288.21
549.544	287.7
549.754	286.55
549.965	287.77
550.175	287.66
550.385	287.84
550.596	288.5
550.806	288.79
551.016	289.08
551.227	288.73
551.437	288.92
551.647	289.1
551.857	291.13
552.068	290.79
552.278	289.19
552.488	290.9
552.698	290.52
552.908	290.17
553.119	290.01
553.329	288.53
553.539	289.04
553.749	288.88
553.959	289.02
554.169	287.08
554.379	287.7
554.589	288.22
554.799	287.3
555.009	286.84
555.219	286.59
555.429	286.95
555.639	287.72
555.849	288.02
556.059	287.97
556.269	287.92
556.479	287.77
556.689	287.68
556.899	287.72
557.109	287.57
557.319	288.06
557.528	287.88
557.738	287.52
557.948	287.64
558.158	286.81
558.368	286.44
558.577	285.26
558.787	286.82
558.997	287.17
559.207	286.64
559.416	286.26
559.626	285.26
559.836	286.12
560.045	286.12
560.255	285.73
560.465	284.48
560.674	285.08
560.884	286.01
561.093	284.42
561.303	283.72
561.512	283.08
561.722	283.68
561.932	284.7
562.141	285.17
562.351	284.06
562.56	283.99
562.769	285.01
562.979	285.19
563.188	289.61
563.398	289.64
563.607	291.52
563.817	292.24
564.026	292.04
564.235	291.84
564.445	290.92
564.654	290.95
564.863	290.75
565.073	290.64
565.282	289.79
565.491	285.12
565.7	285.57
565.91	283.13
566.119	282.35
566.328	281.93
566.537	281.24
566.746	281.01
566.956	281.73
567.165	281.82
567.374	281.81
567.583	282.52
567.792	281.81
568.001	281.68
568.21	281.61
568.419	283.1
568.628	281.95
568.837	282.48
569.046	281.75
569.255	281.59
569.464	280.75
569.673	280.26
569.882	280.06
570.091	280.15
570.3	280.13
570.509	279.92
570.718	277.42
570.927	278.17
571.135	277.39
571.344	276.42
571.553	276.19
571.762	276.02
571.971	275.9
572.18	274.08
572.388	274.7
572.597	274.79
572.806	274.21
573.014	275.08
573.223	273.55
573.432	272.97
573.641	273.15
573.849	272.82
574.058	272.61
574.266	271.46
574.475	271.44
574.684	270.12
574.892	268.81
575.101	269.44
575.309	268.72
575.518	268.86
575.726	268.84
575.935	269.48
576.143	268.59
576.352	268.13
576.56	268.41
576.769	268.15
576.977	267.13
577.186	266.97
577.394	266.26
577.602	266.72
577.811	267.82
578.019	268.61
578.228	267.28
578.436	268.64
578.644	267.75
578.852	268.53
579.061	269.44
579.269	270.62
579.477	270.37
579.685	270.26
579.894	268.93
580.102	267.48
580.31	266.75
580.518	267.08
580.726	266.7
580.935	267.55
581.143	266.93
581.351	266.13
581.559	264.41
581.767	262.32
581.975	259.62
582.183	255.5
582.391	249.86
582.599	241.81
582.807	231.53
583.015	218.75
583.223	206.13
583.431	191.28
583.639	176.12
583.847	161.66
584.055	148.1
584.263	134.5
584.471	123.33
584.678	113.26
584.886	107.55
585.094	100.62
585.302	95.93
585.51	92.66
585.718	90.35
585.925	89.12
586.133	87.57
586.341	85.73
586.549	85.22
586.756	83.92
586.964	83.17
587.172	79.62
587.379	81.44
587.587	81.32
587.795	80.75
588.002	80.22
588.21	86.75
588.417	86.59
588.625	87.33
588.833	87.04
589.04	86.99
589.248	86.93
589.455	86.55
589.663	85.1
589.87	84.21
590.078	83.42
590.285	83.64
590.492	76.22
590.7	76.88
590.907	76.53
591.115	76.19
591.322	76.22
591.529	75.86
591.737	75.3
591.944	75.5
592.151	75.84
592.359	75.7
592.566	75.68
592.773	75.37
592.981	74.46
593.188	74.79
593.395	74.48
593.602	74.06
593.809	74.12
594.017	74.41
594.224	73.72
594.431	73.46
594.638	72.82
594.845	72.01
595.052	72.53
595.259	72.5
595.466	71.41
595.673	71.53
595.88	71.22
596.088	71.33
596.295	71.42
596.502	71.13
596.709	71.52
596.915	73.06
597.122	73.12
597.329	72.99
597.536	72.68
597.743	73.06
597.95	72.9
598.157	72.62
598.364	72.42
598.571	71.95
598.777	71.82
598.984	71.37
599.191	70.64
599.398	70.5
599.605	70.1
599.811	71.24
600.018	71.26
600.225	71.12
600.431	71.44
600.638	70.9
600.845	71.53
601.052	70.79
601.258	69.82
601.465	69.62
601.671	69.75
601.878	68.86
602.085	67.13
602.291	66.24
602.498	66.55
602.704	66.42
602.911	66.24
603.117	66.55
603.324	67.3
603.53	67.59
603.737	67.22
603.943	66.81
604.15	67.19
604.356	70.28
604.562	70.48
604.769	71.04
604.975	70.95
605.181	71.35
605.388	69.92
605.594	69.39
605.8	69.68
606.007	69.3
606.213	69.82
606.419	70.13
606.625	67.7
606.832	68.12
607.038	66.02
607.244	65.77
607.45	65.02
607.656	65.72
607.863	65.93
608.069	65.7
608.275	65.79
608.481	65.48
608.687	64.75
608.893	64.93
609.099	64.75
609.305	66.06
609.511	65.99
609.717	65.61
609.923	65.5
610.129	65.33
610.335	66.02
610.541	65.72
610.747	65.77
610.953	66.24
611.159	65.77
611.365	65.35
611.571	65.44
611.776	65.42
611.982	65.68
612.188	66.21
612.394	66.52
612.6	66.35
612.806	66.39
613.011	65.59
613.217	65.48
613.423	65.24
613.628	64.72
613.834	63.66
614.04	63.17
614.246	63.1
614.451	62.3
614.657	61.99
614.862	61.15
615.068	60.93
615.274	61.42
615.479	60.99
615.685	60.64
615.89	61.12
616.096	61.13
616.301	61.3
616.507	61.52
616.712	60.75
616.918	60.73
617.123	60.77
617.329	61.26
617.534	61.17
617.74	61.15
617.945	61.17
618.15	61.22
618.356	61.19
618.561	60.75
618.766	59.79
618.972	53.9
619.177	47.55
619.382	41.26
619.588	34.95
619.793	32.21
619.998	28.93
620.203	25.13
620.408	19.73
620.614	13.23
